Elevation (deg) - Measured	
0	-27.5
0.005	-27.5
0.01	-27.5
0.015	-27.5
0.02	-27.5
0.025	-27.5
0.03	-27.5
0.035	-27.5
0.04	-27.5
0.045	-27.5
0.05	-27.5
0.055	-27.5
0.06	-27.5
0.065	-27.5
0.07	-27.5
0.075	-27.5
0.08	-27.5
0.085	-27.5
0.09	-27.5
0.095	-27.5
0.1	-27.5
0.105	-27.5
0.11	-27.5
0.115	-27.5
0.12	-27.5
0.125	-27.5
0.13	-27.5
0.135	-27.4121
0.14	-27.4121
0.145	-27.4121
0.15	-27.4121
0.155	-27.3242
0.16	-27.3242
0.165	-27.3242
0.17	-27.3242
0.175	-27.2363
0.18	-27.2363
0.185	-27.2363
0.19	-27.1484
0.195	-27.1484
0.2	-27.1484
0.205	-27.0605
0.21	-26.9727
0.215	-26.9727
0.22	-26.8848
0.225	-26.8848
0.23	-26.7969
0.235	-26.709
0.24	-26.709
0.245	-26.6211
0.25	-26.5332
0.255	-26.5332
0.26	-26.3574
0.265	-26.3574
0.27	-26.2695
0.275	-26.1816
0.28	-26.0937
0.285	-25.918
0.29	-25.918
0.295	-25.8301
0.3	-25.5664
0.305	-25.5664
0.31	-25.3906
0.315	-25.3027
0.32	-25.2148
0.325	-25.127
0.33	-24.8633
0.335	-24.7754
0.34	-24.6875
0.345	-24.5117
0.35	-24.3359
0.355	-24.3359
0.36	-23.9844
0.365	-23.8086
0.37	-23.7207
0.375	-23.2812
0.38	-23.1934
0.385	-22.8418
0.39	-22.5781
0.395	-22.4023
0.4	-22.2266
0.405	-22.1387
0.41	-21.875
0.415	-21.7871
0.42	-21.5234
0.425	-21.4355
0.43	-21.3477
0.435	-21.084
0.44	-20.9961
0.445	-20.7324
0.45	-20.6445
0.455	-20.4687
0.46	-20.293
0.465	-20.2051
0.47	-20.0293
0.475	-19.9414
0.48	-19.8535
0.485	-19.6777
0.49	-19.3262
0.495	-19.2383
0.5	-19.1504
0.505	-18.9746
0.51	-18.8867
0.515	-18.7988
0.52	-18.5352
0.525	-18.4473
0.53	-18.3594
0.535	-18.0078
0.54	-17.832
0.545	-17.6563
0.55	-17.5684
0.555	-17.3926
0.56	-17.2168
0.565	-17.041
0.57	-16.9531
0.575	-16.8652
0.58	-16.6895
0.585	-16.6016
0.59	-16.3379
0.595	-16.25
0.6	-16.1621
0.605	-15.8984
0.61	-15.8105
0.615	-15.7227
0.62	-15.3711
0.625	-15.2832
0.63	-15.1953
0.635	-14.9316
0.64	-14.8437
0.645	-14.5801
0.65	-14.4922
0.655	-14.4043
0.66	-14.2285
0.665	-14.1406
0.67	-14.0527
0.675	-13.7891
0.68	-13.7012
0.685	-13.5254
0.69	-13.4375
0.695	-13.3496
0.7	-13.1738
0.705	-13.0859
0.71	-12.998
0.715	-12.8223
0.72	-12.7344
0.725	-12.6465
0.73	-12.4707
0.735	-12.3828
0.74	-12.2949
0.745	-12.1191
0.75	-12.0313
0.755	-12.0313
0.76	-11.7676
0.765	-11.6797
0.77	-11.6797
0.775	-11.5039
0.78	-11.416
0.785	-11.3281
0.79	-11.1523
0.795	-11.0645
0.8	-10.9766
0.805	-10.8008
0.81	-10.7129
0.815	-10.625
0.82	-10.5371
0.825	-10.4492
0.83	-10.2734
0.835	-10.2734
0.84	-10.1855
0.845	-10.0098
0.85	-9.92188
0.855	-9.92188
0.86	-9.6582
0.865	-9.6582
0.87	-9.57031
0.875	-9.48242
0.88	-9.39453
0.885	-9.30664
0.89	-9.21875
0.895	-9.13086
0.9	-9.04297
0.905	-8.95508
0.91	-8.86719
0.915	-8.7793
0.92	-8.69141
0.925	-8.69141
0.93	-8.60352
0.935	-8.51563
0.94	-8.51563
0.945	-8.42773
0.95	-8.33984
0.955	-8.25195
0.96	-8.16406
0.965	-8.16406
0.97	-8.07617
0.975	-7.98828
0.98	-7.98828
0.985	-7.90039
0.99	-7.8125
0.995	-7.8125
1	-7.72461
1.005	-7.63672
1.01	-7.54883
1.015	-7.54883
1.02	-7.46094
1.025	-7.46094
1.03	-7.37305
1.035	-7.37305
1.04	-7.28516
1.045	-7.19727
1.05	-7.19727
1.055	-7.19727
1.06	-7.10938
1.065	-7.10938
1.07	-7.10938
1.075	-7.02148
1.08	-7.02148
1.085	-6.93359
1.09	-6.93359
1.095	-6.8457
1.1	-6.8457
1.105	-6.8457
1.11	-6.75781
1.115	-6.75781
1.12	-6.75781
1.125	-6.66992
1.13	-6.66992
1.135	-6.58203
1.14	-6.58203
1.145	-6.58203
1.15	-6.58203
1.155	-6.49414
1.16	-6.49414
1.165	-6.49414
1.17	-6.49414
1.175	-6.49414
1.18	-6.49414
1.185	-6.40625
1.19	-6.40625
1.195	-6.40625
1.2	-6.40625
1.205	-6.40625
1.21	-6.40625
1.215	-6.40625
1.22	-6.31836
1.225	-6.31836
1.23	-6.31836
1.235	-6.31836
1.24	-6.31836
1.245	-6.31836
1.25	-6.31836
1.255	-6.31836
1.26	-6.31836
1.265	-6.31836
1.27	-6.31836
1.275	-6.31836
1.28	-6.31836
1.285	-6.31836
1.29	-6.31836
1.295	-6.31836
1.3	-6.31836
1.305	-6.31836
1.31	-6.31836
1.315	-6.31836
1.32	-6.31836
1.325	-6.31836
1.33	-6.31836
1.335	-6.31836
1.34	-6.31836
1.345	-6.40625
1.35	-6.40625
1.355	-6.40625
1.36	-6.40625
1.365	-6.40625
1.37	-6.40625
1.375	-6.49414
1.38	-6.49414
1.385	-6.49414
1.39	-6.49414
1.395	-6.49414
1.4	-6.58203
1.405	-6.58203
1.41	-6.58203
1.415	-6.66992
1.42	-6.66992
1.425	-6.66992
1.43	-6.75781
1.435	-6.75781
1.44	-6.75781
1.445	-6.75781
1.45	-6.8457
1.455	-6.8457
1.46	-6.8457
1.465	-6.93359
1.47	-6.93359
1.475	-6.93359
1.48	-6.93359
1.485	-7.02148
1.49	-7.02148
1.495	-7.02148
1.5	-7.10938
1.505	-7.10938
1.51	-7.10938
1.515	-7.19727
1.52	-7.19727
1.525	-7.28516
1.53	-7.28516
1.535	-7.28516
1.54	-7.37305
1.545	-7.37305
1.55	-7.37305
1.555	-7.46094
1.56	-7.46094
1.565	-7.46094
1.57	-7.54883
1.575	-7.54883
1.58	-7.54883
1.585	-7.54883
1.59	-7.54883
1.595	-7.63672
1.6	-7.63672
1.605	-7.63672
1.61	-7.72461
1.615	-7.72461
1.62	-7.72461
1.625	-7.8125
1.63	-7.8125
1.635	-7.8125
1.64	-7.8125
1.645	-7.8125
1.65	-7.90039
1.655	-7.90039
1.66	-7.90039
1.665	-7.90039
1.67	-7.90039
1.675	-7.90039
1.68	-7.98828
1.685	-7.98828
1.69	-7.98828
1.695	-7.98828
1.7	-7.98828
1.705	-7.98828
1.71	-8.07617
1.715	-8.07617
1.72	-8.07617
1.725	-8.07617
1.73	-8.07617
1.735	-8.07617
1.74	-8.07617
1.745	-8.07617
1.75	-8.07617
1.755	-8.07617
1.76	-8.16406
1.765	-8.16406
1.77	-8.16406
1.775	-8.16406
1.78	-8.16406
1.785	-8.16406
1.79	-8.16406
1.795	-8.16406
1.8	-8.16406
1.805	-8.16406
1.81	-8.16406
1.815	-8.16406
1.82	-8.25195
1.825	-8.25195
1.83	-8.25195
1.835	-8.25195
1.84	-8.25195
1.845	-8.25195
1.85	-8.25195
1.855	-8.25195
1.86	-8.25195
1.865	-8.25195
1.87	-8.25195
1.875	-8.25195
1.88	-8.25195
1.885	-8.25195
1.89	-8.25195
1.895	-8.25195
1.9	-8.25195
1.905	-8.25195
1.91	-8.25195
1.915	-8.25195
1.92	-8.33984
1.925	-8.33984
1.93	-8.33984
1.935	-8.33984
1.94	-8.33984
1.945	-8.33984
1.95	-8.33984
1.955	-8.33984
1.96	-8.33984
1.965	-8.33984
1.97	-8.33984
1.975	-8.33984
1.98	-8.33984
1.985	-8.33984
1.99	-8.33984
1.995	-8.33984
2	-8.33984
2.005	-8.42773
2.01	-8.42773
2.015	-8.42773
2.02	-8.42773
2.025	-8.42773
2.03	-8.42773
2.035	-8.42773
2.04	-8.42773
2.045	-8.42773
2.05	-8.42773
2.055	-8.42773
2.06	-8.42773
2.065	-8.42773
2.07	-8.42773
2.075	-8.42773
2.08	-8.42773
2.085	-8.42773
2.09	-8.42773
2.095	-8.42773
2.1	-8.42773
2.105	-8.42773
2.11	-8.51563
2.115	-8.51563
2.12	-8.51563
2.125	-8.51563
2.13	-8.51563
2.135	-8.51563
2.14	-8.51563
2.145	-8.51563
2.15	-8.51563
2.155	-8.51563
2.16	-8.51563
2.165	-8.51563
2.17	-8.51563
2.175	-8.60352
2.18	-8.60352
2.185	-8.60352
2.19	-8.60352
2.195	-8.60352
2.2	-8.60352
2.205	-8.60352
2.21	-8.60352
2.215	-8.60352
2.22	-8.60352
2.225	-8.60352
2.23	-8.60352
2.235	-8.60352
2.24	-8.60352
2.245	-8.60352
2.25	-8.60352
2.255	-8.60352
2.26	-8.60352
2.265	-8.60352
2.27	-8.60352
2.275	-8.69141
2.28	-8.69141
2.285	-8.69141
2.29	-8.69141
2.295	-8.69141
2.3	-8.69141
2.305	-8.69141
2.31	-8.69141
2.315	-8.69141
2.32	-8.69141
2.325	-8.69141
2.33	-8.7793
2.335	-8.7793
2.34	-8.7793
2.345	-8.7793
2.35	-8.7793
2.355	-8.7793
2.36	-8.7793
2.365	-8.7793
2.37	-8.7793
2.375	-8.7793
2.38	-8.7793
2.385	-8.7793
2.39	-8.7793
2.395	-8.7793
2.4	-8.7793
2.405	-8.7793
2.41	-8.7793
2.415	-8.7793
2.42	-8.7793
2.425	-8.7793
2.43	-8.7793
2.435	-8.7793
2.44	-8.7793
2.445	-8.7793
2.45	-8.7793
2.455	-8.7793
2.46	-8.7793
2.465	-8.86719
2.47	-8.86719
2.475	-8.86719
2.48	-8.86719
2.485	-8.86719
2.49	-8.86719
2.495	-8.86719
2.5	-8.86719
2.505	-8.86719
2.51	-8.86719
2.515	-8.86719
2.52	-8.86719
2.525	-8.86719
2.53	-8.86719
2.535	-8.86719
2.54	-8.86719
2.545	-8.86719
2.55	-8.86719
2.555	-8.86719
2.56	-8.86719
2.565	-8.86719
2.57	-8.86719
2.575	-8.86719
2.58	-8.86719
2.585	-8.86719
2.59	-8.86719
2.595	-8.86719
2.6	-8.86719
2.605	-8.86719
2.61	-8.86719
2.615	-8.86719
2.62	-8.86719
2.625	-8.86719
2.63	-8.86719
2.635	-8.86719
2.64	-8.95508
2.645	-8.95508
2.65	-8.95508
2.655	-8.95508
2.66	-8.95508
2.665	-8.95508
2.67	-8.95508
2.675	-8.95508
2.68	-8.95508
2.685	-8.95508
2.69	-8.95508
2.695	-8.95508
2.7	-8.95508
2.705	-8.95508
2.71	-8.95508
2.715	-8.95508
2.72	-8.95508
2.725	-8.95508
2.73	-8.95508
2.735	-8.95508
2.74	-8.95508
2.745	-8.95508
2.75	-8.95508
2.755	-8.95508
2.76	-8.95508
2.765	-8.95508
2.77	-8.95508
2.775	-8.95508
2.78	-8.95508
2.785	-8.95508
2.79	-8.95508
2.795	-8.95508
2.8	-8.95508
2.805	-8.95508
2.81	-8.95508
2.815	-8.95508
2.82	-8.95508
2.825	-8.95508
2.83	-8.95508
2.835	-8.95508
2.84	-8.95508
2.845	-9.04297
2.85	-9.04297
2.855	-9.04297
2.86	-9.04297
2.865	-9.04297
2.87	-9.04297
2.875	-9.04297
2.88	-9.04297
2.885	-9.04297
2.89	-9.04297
2.895	-9.04297
2.9	-9.04297
2.905	-9.04297
2.91	-9.04297
2.915	-9.04297
2.92	-9.04297
2.925	-9.04297
2.93	-9.04297
2.935	-9.04297
2.94	-9.04297
2.945	-9.04297
2.95	-9.04297
2.955	-9.04297
2.96	-9.04297
2.965	-9.04297
2.97	-9.13086
2.975	-9.13086
2.98	-9.13086
2.985	-9.13086
2.99	-9.13086
2.995	-9.13086
3	-9.13086
3.005	-9.13086
3.01	-9.13086
3.015	-9.13086
3.02	-9.13086
3.025	-9.13086
3.03	-9.13086
3.035	-9.13086
3.04	-9.13086
3.045	-9.13086
3.05	-9.13086
3.055	-9.13086
3.06	-9.13086
3.065	-9.13086
3.07	-9.13086
3.075	-9.13086
3.08	-9.13086
3.085	-9.13086
3.09	-9.13086
3.095	-9.13086
3.1	-9.13086
3.105	-9.13086
3.11	-9.13086
3.115	-9.13086
3.12	-9.13086
3.125	-9.13086
3.13	-9.13086
3.135	-9.13086
3.14	-9.13086
3.145	-9.13086
3.15	-9.13086
3.155	-9.13086
3.16	-9.13086
3.165	-9.13086
3.17	-9.13086
3.175	-9.13086
3.18	-9.21875
3.185	-9.21875
3.19	-9.21875
3.195	-9.21875
3.2	-9.21875
3.205	-9.21875
3.21	-9.21875
3.215	-9.21875
3.22	-9.21875
3.225	-9.21875
3.23	-9.21875
3.235	-9.21875
3.24	-9.21875
3.245	-9.21875
3.25	-9.21875
3.255	-9.21875
3.26	-9.21875
3.265	-9.21875
3.27	-9.21875
3.275	-9.21875
3.28	-9.21875
3.285	-9.21875
3.29	-9.21875
3.295	-9.21875
3.3	-9.21875
3.305	-9.21875
3.31	-9.21875
3.315	-9.21875
3.32	-9.21875
3.325	-9.21875
3.33	-9.21875
3.335	-9.21875
3.34	-9.21875
3.345	-9.21875
3.35	-9.21875
3.355	-9.21875
3.36	-9.21875
3.365	-9.21875
3.37	-9.21875
3.375	-9.21875
3.38	-9.21875
3.385	-9.21875
3.39	-9.21875
3.395	-9.21875
3.4	-9.21875
3.405	-9.21875
3.41	-9.21875
3.415	-9.21875
3.42	-9.21875
3.425	-9.21875
3.43	-9.21875
3.435	-9.21875
3.44	-9.21875
3.445	-9.21875
3.45	-9.21875
3.455	-9.21875
3.46	-9.21875
3.465	-9.21875
3.47	-9.21875
3.475	-9.21875
3.48	-9.21875
3.485	-9.21875
3.49	-9.21875
3.495	-9.21875
3.5	-9.30664
3.505	-9.30664
3.51	-9.30664
3.515	-9.30664
3.52	-9.30664
3.525	-9.30664
3.53	-9.30664
3.535	-9.30664
3.54	-9.30664
3.545	-9.30664
3.55	-9.30664
3.555	-9.30664
3.56	-9.30664
3.565	-9.30664
3.57	-9.30664
3.575	-9.30664
3.58	-9.30664
3.585	-9.30664
3.59	-9.30664
3.595	-9.30664
3.6	-9.30664
3.605	-9.30664
3.61	-9.30664
3.615	-9.30664
3.62	-9.30664
3.625	-9.30664
3.63	-9.30664
3.635	-9.30664
3.64	-9.30664
3.645	-9.30664
3.65	-9.30664
3.655	-9.30664
3.66	-9.30664
3.665	-9.30664
3.67	-9.30664
3.675	-9.30664
3.68	-9.30664
3.685	-9.30664
3.69	-9.30664
3.695	-9.30664
3.7	-9.30664
3.705	-9.30664
3.71	-9.30664
3.715	-9.30664
3.72	-9.30664
3.725	-9.30664
3.73	-9.30664
3.735	-9.30664
3.74	-9.30664
3.745	-9.30664
3.75	-9.30664
3.755	-9.30664
3.76	-9.30664
3.765	-9.30664
3.77	-9.30664
3.775	-9.30664
3.78	-9.30664
3.785	-9.30664
3.79	-9.30664
3.795	-9.30664
3.8	-9.30664
3.805	-9.30664
3.81	-9.30664
3.815	-9.30664
3.82	-9.30664
3.825	-9.30664
3.83	-9.30664
3.835	-9.30664
3.84	-9.30664
3.845	-9.30664
3.85	-9.30664
3.855	-9.30664
3.86	-9.30664
3.865	-9.30664
3.87	-9.30664
3.875	-9.30664
3.88	-9.30664
3.885	-9.30664
3.89	-9.30664
3.895	-9.30664
3.9	-9.30664
3.905	-9.30664
3.91	-9.30664
3.915	-9.30664
3.92	-9.30664
3.925	-9.30664
3.93	-9.30664
3.935	-9.30664
3.94	-9.30664
3.945	-9.30664
3.95	-9.30664
3.955	-9.30664
3.96	-9.30664
3.965	-9.30664
3.97	-9.30664
3.975	-9.30664
3.98	-9.30664
3.985	-9.30664
3.99	-9.30664
3.995	-9.30664
4	-9.30664
4.005	-9.30664
4.01	-9.30664
4.015	-9.30664
4.02	-9.30664
4.025	-9.30664
4.03	-9.30664
4.035	-9.30664
4.04	-9.30664
4.045	-9.30664
4.05	-9.30664
4.055	-9.30664
4.06	-9.30664
4.065	-9.30664
4.07	-9.30664
4.075	-9.30664
4.08	-9.30664
4.085	-9.30664
4.09	-9.30664
4.095	-9.30664
4.1	-9.30664
4.105	-9.30664
4.11	-9.30664
4.115	-9.30664
4.12	-9.30664
4.125	-9.30664
4.13	-9.30664
4.135	-9.30664
4.14	-9.30664
4.145	-9.30664
4.15	-9.30664
4.155	-9.30664
4.16	-9.30664
4.165	-9.30664
4.17	-9.30664
4.175	-9.30664
4.18	-9.30664
4.185	-9.30664
4.19	-9.30664
4.195	-9.30664
4.2	-9.30664
4.205	-9.30664
4.21	-9.30664
4.215	-9.30664
4.22	-9.30664
4.225	-9.30664
4.23	-9.30664
4.235	-9.30664
4.24	-9.30664
4.245	-9.30664
4.25	-9.30664
4.255	-9.30664
4.26	-9.30664
4.265	-9.30664
4.27	-9.30664
4.275	-9.30664
4.28	-9.30664
4.285	-9.30664
4.29	-9.30664
4.295	-9.30664
4.3	-9.39453
4.305	-9.39453
4.31	-9.39453
4.315	-9.39453
4.32	-9.39453
4.325	-9.39453
4.33	-9.39453
4.335	-9.39453
4.34	-9.39453
4.345	-9.39453
4.35	-9.39453
4.355	-9.39453
4.36	-9.39453
4.365	-9.39453
4.37	-9.39453
4.375	-9.39453
4.38	-9.39453
4.385	-9.39453
4.39	-9.39453
4.395	-9.39453
4.4	-9.39453
4.405	-9.39453
4.41	-9.39453
4.415	-9.39453
4.42	-9.39453
4.425	-9.39453
4.43	-9.39453
4.435	-9.39453
4.44	-9.39453
4.445	-9.39453
4.45	-9.39453
4.455	-9.39453
4.46	-9.39453
4.465	-9.39453
4.47	-9.39453
4.475	-9.39453
4.48	-9.39453
4.485	-9.39453
4.49	-9.39453
4.495	-9.39453
4.5	-9.39453
4.505	-9.39453
4.51	-9.39453
4.515	-9.39453
4.52	-9.39453
4.525	-9.39453
4.53	-9.39453
4.535	-9.39453
4.54	-9.39453
4.545	-9.39453
4.55	-9.39453
4.555	-9.39453
4.56	-9.39453
4.565	-9.39453
4.57	-9.39453
4.575	-9.39453
4.58	-9.39453
4.585	-9.39453
4.59	-9.39453
4.595	-9.39453
4.6	-9.39453
4.605	-9.39453
4.61	-9.39453
4.615	-9.39453
4.62	-9.39453
4.625	-9.39453
4.63	-9.39453
4.635	-9.39453
4.64	-9.39453
4.645	-9.39453
4.65	-9.39453
4.655	-9.39453
4.66	-9.39453
4.665	-9.39453
4.67	-9.39453
4.675	-9.39453
4.68	-9.39453
4.685	-9.39453
4.69	-9.39453
4.695	-9.39453
4.7	-9.39453
4.705	-9.39453
4.71	-9.39453
4.715	-9.39453
4.72	-9.39453
4.725	-9.39453
4.73	-9.39453
4.735	-9.39453
4.74	-9.39453
4.745	-9.39453
4.75	-9.39453
4.755	-9.39453
4.76	-9.39453
4.765	-9.39453
4.77	-9.39453
4.775	-9.39453
4.78	-9.39453
4.785	-9.39453
4.79	-9.39453
4.795	-9.39453
4.8	-9.39453
4.805	-9.39453
4.81	-9.48242
4.815	-9.48242
4.82	-9.48242
4.825	-9.48242
4.83	-9.48242
4.835	-9.48242
4.84	-9.48242
4.845	-9.48242
4.85	-9.48242
4.855	-9.48242
4.86	-9.48242
4.865	-9.48242
4.87	-9.48242
4.875	-9.48242
4.88	-9.48242
4.885	-9.48242
4.89	-9.48242
4.895	-9.48242
4.9	-9.48242
4.905	-9.48242
4.91	-9.48242
4.915	-9.48242
4.92	-9.48242
4.925	-9.48242
4.93	-9.48242
4.935	-9.48242
4.94	-9.48242
4.945	-9.48242
4.95	-9.48242
4.955	-9.48242
4.96	-9.48242
4.965	-9.48242
4.97	-9.48242
4.975	-9.48242
4.98	-9.48242
4.985	-9.48242
4.99	-9.48242
4.995	-9.48242
5	-9.48242
5.005	-9.48242
5.01	-9.48242
5.015	-9.48242
5.02	-9.48242
5.025	-9.48242
5.03	-9.48242
5.035	-9.48242
5.04	-9.48242
5.045	-9.48242
5.05	-9.48242
5.055	-9.48242
5.06	-9.48242
5.065	-9.48242
5.07	-9.48242
5.075	-9.48242
5.08	-9.48242
5.085	-9.39453
5.09	-9.39453
5.095	-9.39453
5.1	-9.39453
5.105	-9.39453
5.11	-9.39453
5.115	-9.30664
5.12	-9.30664
5.125	-9.30664
5.13	-9.30664
5.135	-9.30664
5.14	-9.21875
5.145	-9.21875
5.15	-9.21875
5.155	-9.21875
5.16	-9.13086
5.165	-9.13086
5.17	-9.13086
5.175	-9.04297
5.18	-9.04297
5.185	-8.95508
5.19	-8.95508
5.195	-8.95508
5.2	-8.95508
5.205	-8.86719
5.21	-8.7793
5.215	-8.7793
5.22	-8.60352
5.225	-8.60352
5.23	-8.51563
5.235	-8.42773
5.24	-8.33984
5.245	-8.25195
5.25	-8.16406
5.255	-8.16406
5.26	-8.07617
5.265	-7.8125
5.27	-7.72461
5.275	-7.54883
5.28	-7.46094
5.285	-7.46094
5.29	-7.28516
5.295	-7.19727
5.3	-7.10938
5.305	-6.8457
5.31	-6.75781
5.315	-6.49414
5.32	-6.31836
5.325	-6.05469
5.33	-5.9668
5.335	-5.70313
5.34	-5.52734
5.345	-5.43945
5.35	-5.26367
5.355	-5.08789
5.36	-5
5.365	-4.82422
5.37	-4.73633
5.375	-4.56055
5.38	-4.38477
5.385	-4.29688
5.39	-4.20898
5.395	-3.94531
5.4	-3.85742
5.405	-3.68164
5.41	-3.59375
5.415	-3.50586
5.42	-3.41797
5.425	-3.1543
5.43	-3.06641
5.435	-2.97852
5.44	-2.71484
5.445	-2.62695
5.45	-2.53906
5.455	-2.27539
5.46	-2.1875
5.465	-1.83594
5.47	-1.74805
5.475	-1.57227
5.48	-1.2207
5.485	-1.13281
5.49	-1.04492
5.495	-0.78125
5.5	-0.693359
5.505	-0.605469
5.51	-0.429688
5.515	-0.253906
5.52	-0.166016
5.525	0.185547
5.53	0.273438
5.535	0.361328
5.54	0.537109
5.545	0.625
5.55	0.712891
5.555	0.888672
5.56	0.976562
5.565	1.06445
5.57	1.24023
5.575	1.32812
5.58	1.41602
5.585	1.5918
5.59	1.67969
5.595	1.85547
5.6	2.03125
5.605	2.11914
5.61	2.20703
5.615	2.38281
5.62	2.4707
5.625	2.55859
5.63	2.73437
5.635	2.82227
5.64	2.91016
5.645	3.08594
5.65	3.17383
5.655	3.34961
5.66	3.4375
5.665	3.61328
5.67	3.70117
5.675	3.78906
5.68	3.87695
5.685	3.96484
5.69	4.05273
5.695	4.31641
5.7	4.4043
5.705	4.58008
5.71	4.66797
5.715	4.66797
5.72	4.84375
5.725	4.93164
5.73	5.01953
5.735	5.19531
5.74	5.19531
5.745	5.2832
5.75	5.37109
5.755	5.37109
5.76	5.45898
5.765	5.63477
5.77	5.63477
5.775	5.72266
5.78	5.81055
5.785	5.89844
5.79	5.89844
5.795	5.98633
5.8	6.07422
5.805	6.07422
5.81	6.16211
5.815	6.16211
5.82	6.25
5.825	6.25
5.83	6.33789
5.835	6.33789
5.84	6.42578
5.845	6.51367
5.85	6.51367
5.855	6.60156
5.86	6.60156
5.865	6.60156
5.87	6.68945
5.875	6.77734
5.88	6.77734
5.885	6.77734
5.89	6.86523
5.895	6.86523
5.9	6.95312
5.905	6.95312
5.91	6.95312
5.915	7.04102
5.92	7.04102
5.925	7.04102
5.93	7.12891
5.935	7.12891
5.94	7.2168
5.945	7.2168
5.95	7.2168
5.955	7.30469
5.96	7.30469
5.965	7.30469
5.97	7.39258
5.975	7.39258
5.98	7.39258
5.985	7.48047
5.99	7.48047
5.995	7.48047
6	7.56836
6.005	7.56836
6.01	7.56836
6.015	7.65625
6.02	7.65625
6.025	7.65625
6.03	7.65625
6.035	7.65625
6.04	7.74414
6.045	7.74414
6.05	7.74414
6.055	7.83203
6.06	7.83203
6.065	7.91992
6.07	7.91992
6.075	7.91992
6.08	8.00781
6.085	8.00781
6.09	8.00781
6.095	8.00781
6.1	8.00781
6.105	8.0957
6.11	8.0957
6.115	8.0957
6.12	8.0957
6.125	8.0957
6.13	8.18359
6.135	8.18359
6.14	8.18359
6.145	8.27148
6.15	8.27148
6.155	8.27148
6.16	8.27148
6.165	8.27148
6.17	8.35937
6.175	8.35937
6.18	8.35937
6.185	8.35937
6.19	8.44727
6.195	8.44727
6.2	8.44727
6.205	8.53516
6.21	8.53516
6.215	8.53516
6.22	8.53516
6.225	8.62305
6.23	8.62305
6.235	8.62305
6.24	8.62305
6.245	8.71094
6.25	8.71094
6.255	8.71094
6.26	8.71094
6.265	8.71094
6.27	8.71094
6.275	8.79883
6.28	8.79883
6.285	8.79883
6.29	8.79883
6.295	8.79883
6.3	8.79883
6.305	8.88672
6.31	8.88672
6.315	8.88672
6.32	8.88672
6.325	8.97461
6.33	8.97461
6.335	8.97461
6.34	8.97461
6.345	8.97461
6.35	8.97461
6.355	8.97461
6.36	9.0625
6.365	9.0625
6.37	9.0625
6.375	9.0625
6.38	9.0625
6.385	9.0625
6.39	9.15039
6.395	9.15039
6.4	9.15039
6.405	9.15039
6.41	9.15039
6.415	9.15039
6.42	9.15039
6.425	9.23828
6.43	9.23828
6.435	9.23828
6.44	9.23828
6.445	9.32617
6.45	9.32617
6.455	9.32617
6.46	9.32617
6.465	9.32617
6.47	9.32617
6.475	9.32617
6.48	9.41406
6.485	9.41406
6.49	9.41406
6.495	9.41406
6.5	9.41406
6.505	9.41406
6.51	9.41406
6.515	9.41406
6.52	9.41406
6.525	9.50195
6.53	9.50195
6.535	9.50195
6.54	9.50195
6.545	9.50195
6.55	9.50195
6.555	9.50195
6.56	9.50195
6.565	9.58984
6.57	9.58984
6.575	9.58984
6.58	9.58984
6.585	9.58984
6.59	9.58984
6.595	9.58984
6.6	9.58984
6.605	9.58984
6.61	9.58984
6.615	9.58984
6.62	9.67773
6.625	9.67773
6.63	9.67773
6.635	9.67773
6.64	9.67773
6.645	9.67773
6.65	9.67773
6.655	9.67773
6.66	9.67773
6.665	9.67773
6.67	9.67773
6.675	9.67773
6.68	9.67773
6.685	9.76563
6.69	9.76563
6.695	9.76563
6.7	9.76563
6.705	9.76563
6.71	9.76563
6.715	9.76563
6.72	9.76563
6.725	9.76563
6.73	9.76563
6.735	9.76563
6.74	9.76563
6.745	9.76563
6.75	9.76563
6.755	9.85352
6.76	9.85352
6.765	9.85352
6.77	9.85352
6.775	9.85352
6.78	9.85352
6.785	9.85352
6.79	9.85352
6.795	9.85352
6.8	9.85352
6.805	9.85352
6.81	9.85352
6.815	9.85352
6.82	9.85352
6.825	9.85352
6.83	9.85352
6.835	9.85352
6.84	9.85352
6.845	9.85352
6.85	9.85352
6.855	9.85352
6.86	9.85352
6.865	9.85352
6.87	9.85352
6.875	9.85352
6.88	9.85352
6.885	9.85352
6.89	9.94141
6.895	9.94141
6.9	9.94141
6.905	9.94141
6.91	9.94141
6.915	9.94141
6.92	9.94141
6.925	9.94141
6.93	9.94141
6.935	9.94141
6.94	9.94141
6.945	9.94141
6.95	9.94141
6.955	9.94141
6.96	9.94141
6.965	9.94141
6.97	9.94141
6.975	10.0293
6.98	10.0293
6.985	10.0293
6.99	10.0293
6.995	10.0293
7	10.0293
7.005	10.0293
7.01	10.0293
7.015	10.0293
7.02	10.0293
7.025	10.0293
7.03	10.0293
7.035	10.0293
7.04	10.0293
7.045	10.0293
7.05	10.0293
7.055	10.0293
7.06	10.0293
7.065	10.0293
7.07	10.0293
7.075	10.0293
7.08	10.0293
7.085	10.0293
7.09	10.0293
7.095	10.0293
7.1	10.0293
7.105	10.0293
7.11	10.0293
7.115	10.0293
7.12	10.0293
7.125	10.0293
7.13	10.0293
7.135	10.0293
7.14	10.0293
7.145	10.0293
7.15	10.0293
7.155	10.0293
7.16	10.0293
7.165	10.0293
7.17	10.0293
7.175	10.1172
7.18	10.1172
7.185	10.1172
7.19	10.1172
7.195	10.1172
7.2	10.1172
7.205	10.1172
7.21	10.1172
7.215	10.1172
7.22	10.1172
7.225	10.1172
7.23	10.1172
7.235	10.1172
7.24	10.1172
7.245	10.1172
7.25	10.1172
7.255	10.1172
7.26	10.1172
7.265	10.1172
7.27	10.1172
7.275	10.1172
7.28	10.1172
7.285	10.1172
7.29	10.1172
7.295	10.1172
7.3	10.1172
7.305	10.1172
7.31	10.1172
7.315	10.1172
7.32	10.1172
7.325	10.1172
7.33	10.1172
7.335	10.1172
7.34	10.1172
7.345	10.1172
7.35	10.1172
7.355	10.1172
7.36	10.1172
7.365	10.1172
7.37	10.1172
7.375	10.1172
7.38	10.1172
7.385	10.1172
7.39	10.1172
7.395	10.1172
7.4	10.1172
7.405	10.1172
7.41	10.1172
7.415	10.1172
7.42	10.1172
7.425	10.1172
7.43	10.1172
7.435	10.1172
7.44	10.1172
7.445	10.1172
7.45	10.1172
7.455	10.1172
7.46	10.1172
7.465	10.1172
7.47	10.1172
7.475	10.1172
7.48	10.1172
7.485	10.1172
7.49	10.1172
7.495	10.1172
7.5	10.1172
7.505	10.1172
7.51	10.1172
7.515	10.1172
7.52	10.1172
7.525	10.1172
7.53	10.1172
7.535	10.1172
7.54	10.1172
7.545	10.1172
7.55	10.1172
7.555	10.1172
7.56	10.1172
7.565	10.1172
7.57	10.1172
7.575	10.1172
7.58	10.1172
7.585	10.1172
7.59	10.1172
7.595	10.1172
7.6	10.1172
7.605	10.1172
7.61	10.1172
7.615	10.1172
7.62	10.1172
7.625	10.1172
7.63	10.1172
7.635	10.1172
7.64	10.1172
7.645	10.1172
7.65	10.1172
7.655	10.1172
7.66	10.1172
7.665	10.1172
7.67	10.1172
7.675	10.1172
7.68	10.1172
7.685	10.1172
7.69	10.1172
7.695	10.1172
7.7	10.1172
7.705	10.1172
7.71	10.1172
7.715	10.1172
7.72	10.1172
7.725	10.1172
7.73	10.1172
7.735	10.1172
7.74	10.1172
7.745	10.1172
7.75	10.1172
7.755	10.1172
7.76	10.1172
7.765	10.1172
7.77	10.1172
7.775	10.1172
7.78	10.1172
7.785	10.1172
7.79	10.1172
7.795	10.1172
7.8	10.1172
7.805	10.1172
7.81	10.1172
7.815	10.1172
7.82	10.1172
7.825	10.1172
7.83	10.1172
7.835	10.1172
7.84	10.1172
7.845	10.1172
7.85	10.1172
7.855	10.1172
7.86	10.1172
7.865	10.1172
7.87	10.1172
7.875	10.1172
7.88	10.1172
7.885	10.1172
7.89	10.1172
7.895	10.1172
7.9	10.1172
7.905	10.1172
7.91	10.1172
7.915	10.1172
7.92	10.1172
7.925	10.1172
7.93	10.1172
7.935	10.1172
7.94	10.1172
7.945	10.1172
7.95	10.1172
7.955	10.1172
7.96	10.1172
7.965	10.1172
7.97	10.1172
7.975	10.1172
7.98	10.1172
7.985	10.1172
7.99	10.1172
7.995	10.1172
8	10.1172
8.005	10.1172
8.01	10.1172
8.015	10.1172
8.02	10.1172
8.025	10.1172
8.03	10.1172
8.035	10.1172
8.04	10.1172
8.045	10.1172
8.05	10.1172
8.055	10.1172
8.06	10.1172
8.065	10.1172
8.07	10.1172
8.075	10.1172
8.08	10.1172
8.085	10.1172
8.09	10.1172
8.095	10.1172
8.1	10.1172
8.105	10.1172
8.11	10.1172
8.115	10.1172
8.12	10.1172
8.125	10.1172
8.13	10.1172
8.135	10.1172
8.14	10.1172
8.145	10.1172
8.15	10.1172
8.155	10.1172
8.16	10.1172
8.165	10.1172
8.17	10.1172
8.175	10.1172
8.18	10.1172
8.185	10.2051
8.19	10.2051
8.195	10.2051
8.2	10.2051
8.205	10.2051
8.21	10.2051
8.215	10.2051
8.22	10.2051
8.225	10.2051
8.23	10.2051
8.235	10.2051
8.24	10.2051
8.245	10.2051
8.25	10.2051
8.255	10.2051
8.26	10.2051
8.265	10.2051
8.27	10.2051
8.275	10.2051
8.28	10.2051
8.285	10.2051
8.29	10.2051
8.295	10.2051
8.3	10.2051
8.305	10.2051
8.31	10.2051
8.315	10.2051
8.32	10.2051
8.325	10.2051
8.33	10.2051
8.335	10.2051
8.34	10.2051
8.345	10.2051
8.35	10.2051
8.355	10.2051
8.36	10.1172
8.365	10.1172
8.37	10.1172
8.375	10.1172
8.38	10.1172
8.385	10.1172
8.39	10.1172
8.395	10.1172
8.4	10.1172
8.405	10.1172
8.41	10.1172
8.415	10.1172
8.42	10.1172
8.425	10.1172
8.43	10.1172
8.435	10.1172
8.44	10.1172
8.445	10.1172
8.45	10.1172
8.455	10.1172
8.46	10.1172
8.465	10.1172
8.47	10.1172
8.475	10.1172
8.48	10.1172
8.485	10.1172
8.49	10.1172
8.495	10.1172
8.5	10.1172
8.505	10.1172
8.51	10.1172
8.515	10.1172
8.52	10.1172
8.525	10.1172
8.53	10.1172
8.535	10.1172
8.54	10.1172
8.545	10.1172
8.55	10.1172
8.555	10.1172
8.56	10.1172
8.565	10.1172
8.57	10.1172
8.575	10.1172
8.58	10.1172
8.585	10.1172
8.59	10.1172
8.595	10.1172
8.6	10.1172
8.605	10.1172
8.61	10.1172
8.615	10.1172
8.62	10.1172
8.625	10.1172
8.63	10.1172
8.635	10.1172
8.64	10.1172
8.645	10.1172
8.65	10.1172
8.655	10.1172
8.66	10.1172
8.665	10.1172
8.67	10.1172
8.675	10.1172
8.68	10.1172
8.685	10.1172
8.69	10.1172
8.695	10.1172
8.7	10.1172
8.705	10.1172
8.71	10.2051
8.715	10.2051
8.72	10.2051
8.725	10.2051
8.73	10.2051
8.735	10.2051
8.74	10.2051
8.745	10.2051
8.75	10.2051
8.755	10.2051
8.76	10.2051
8.765	10.2051
8.77	10.2051
8.775	10.2051
8.78	10.2051
8.785	10.2051
8.79	10.2051
8.795	10.2051
8.8	10.2051
8.805	10.2051
8.81	10.2051
8.815	10.2051
8.82	10.2051
8.825	10.2051
8.83	10.2051
8.835	10.2051
8.84	10.2051
8.845	10.2051
8.85	10.2051
8.855	10.2051
8.86	10.2051
8.865	10.2051
8.87	10.2051
8.875	10.2051
8.88	10.2051
8.885	10.2051
8.89	10.2051
8.895	10.2051
8.9	10.2051
8.905	10.2051
8.91	10.2051
8.915	10.2051
8.92	10.2051
8.925	10.2051
8.93	10.2051
8.935	10.2051
8.94	10.2051
8.945	10.1172
8.95	10.1172
8.955	10.1172
8.96	10.1172
8.965	10.1172
8.97	10.1172
8.975	10.1172
8.98	10.1172
8.985	10.1172
8.99	10.1172
8.995	10.1172
9	10.1172
9.005	10.1172
9.01	10.1172
9.015	10.1172
9.02	10.1172
9.025	10.1172
9.03	10.1172
9.035	10.1172
9.04	10.1172
9.045	10.1172
9.05	10.1172
9.055	10.1172
9.06	10.1172
9.065	10.1172
9.07	10.1172
9.075	10.1172
9.08	10.1172
9.085	10.1172
9.09	10.1172
9.095	10.1172
9.1	10.1172
9.105	10.1172
9.11	10.1172
9.115	10.1172
9.12	10.1172
9.125	10.1172
9.13	10.1172
9.135	10.1172
9.14	10.1172
9.145	10.1172
9.15	10.1172
9.155	10.1172
9.16	10.1172
9.165	10.1172
9.17	10.1172
9.175	10.1172
9.18	10.1172
9.185	10.1172
9.19	10.1172
9.195	10.2051
9.2	10.2051
9.205	10.2051
9.21	10.2051
9.215	10.2051
9.22	10.2051
9.225	10.2051
9.23	10.2051
9.235	10.2051
9.24	10.2051
9.245	10.2051
9.25	10.2051
9.255	10.2051
9.26	10.2051
9.265	10.2051
9.27	10.2051
9.275	10.2051
9.28	10.2051
9.285	10.2051
9.29	10.2051
9.295	10.2051
9.3	10.2051
9.305	10.2051
9.31	10.2051
9.315	10.2051
9.32	10.2051
9.325	10.2051
9.33	10.2051
9.335	10.2051
9.34	10.2051
9.345	10.2051
9.35	10.2051
9.355	10.2051
9.36	10.2051
9.365	10.2051
9.37	10.2051
9.375	10.2051
9.38	10.2051
9.385	10.2051
9.39	10.2051
9.395	10.2051
9.4	10.2051
9.405	10.2051
9.41	10.2051
9.415	10.2051
9.42	10.2051
9.425	10.2051
9.43	10.2051
9.435	10.2051
9.44	10.2051
9.445	10.2051
9.45	10.2051
9.455	10.2051
9.46	10.2051
9.465	10.2051
9.47	10.2051
9.475	10.2051
9.48	10.1172
9.485	10.1172
9.49	10.1172
9.495	10.1172
9.5	10.1172
9.505	10.1172
9.51	10.1172
9.515	10.1172
9.52	10.1172
9.525	10.1172
9.53	10.1172
9.535	10.1172
9.54	10.1172
9.545	10.1172
9.55	10.1172
9.555	10.1172
9.56	10.1172
9.565	10.1172
9.57	10.1172
9.575	10.1172
9.58	10.1172
9.585	10.1172
9.59	10.1172
9.595	10.1172
9.6	10.1172
9.605	10.1172
9.61	10.1172
9.615	10.1172
9.62	10.1172
9.625	10.1172
9.63	10.1172
9.635	10.1172
9.64	10.1172
9.645	10.1172
9.65	10.1172
9.655	10.1172
9.66	10.1172
9.665	10.1172
9.67	10.1172
9.675	10.1172
9.68	10.1172
9.685	10.1172
9.69	10.1172
9.695	10.1172
9.7	10.1172
9.705	10.1172
9.71	10.1172
9.715	10.1172
9.72	10.1172
9.725	10.1172
9.73	10.1172
9.735	10.1172
9.74	10.1172
9.745	10.1172
9.75	10.1172
9.755	10.1172
9.76	10.1172
9.765	10.1172
9.77	10.1172
9.775	10.1172
9.78	10.1172
9.785	10.1172
9.79	10.1172
9.795	10.1172
9.8	10.1172
9.805	10.1172
9.81	10.1172
9.815	10.1172
9.82	10.1172
9.825	10.1172
9.83	10.1172
9.835	10.1172
9.84	10.1172
9.845	10.1172
9.85	10.1172
9.855	10.1172
9.86	10.1172
9.865	10.1172
9.87	10.1172
9.875	10.1172
9.88	10.1172
9.885	10.1172
9.89	10.1172
9.895	10.1172
9.9	10.1172
9.905	10.1172
9.91	10.1172
9.915	10.1172
9.92	10.1172
9.925	10.1172
9.93	10.1172
9.935	10.1172
9.94	10.1172
9.945	10.1172
9.95	10.1172
9.955	10.1172
9.96	10.1172
9.965	10.1172
9.97	10.1172
9.975	10.1172
9.98	10.1172
9.985	10.1172
9.99	10.1172
9.995	10.1172
10	10.1172
10.005	10.1172
10.01	10.1172
10.015	10.1172
10.02	10.1172
10.025	10.1172
10.03	10.1172
10.035	10.1172
10.04	10.1172
10.045	10.1172
10.05	10.1172
10.055	10.1172
10.06	10.1172
10.065	10.1172
10.07	10.1172
10.075	10.1172
10.08	10.0293
10.085	10.0293
10.09	10.0293
10.095	10.0293
10.1	9.94141
10.105	9.94141
10.11	9.94141
10.115	9.85352
10.12	9.85352
10.125	9.85352
10.13	9.76563
10.135	9.67773
10.14	9.67773
10.145	9.58984
10.15	9.58984
10.155	9.58984
10.16	9.41406
10.165	9.41406
10.17	9.41406
10.175	9.23828
10.18	9.23828
10.185	9.15039
10.19	8.97461
10.195	8.97461
10.2	8.88672
10.205	8.71094
10.21	8.62305
10.215	8.62305
10.22	8.35937
10.225	8.27148
10.23	8.27148
10.235	8.00781
10.24	7.91992
10.245	7.91992
10.25	7.74414
10.255	7.65625
10.26	7.56836
10.265	7.30469
10.27	7.2168
10.275	7.12891
10.28	6.95312
10.285	6.95312
10.29	6.77734
10.295	6.60156
10.3	6.51367
10.305	6.42578
10.31	6.16211
10.315	6.07422
10.32	5.98633
10.325	5.72266
10.33	5.54688
10.335	5.45898
10.34	5.19531
10.345	5.10742
10.35	4.93164
10.355	4.66797
10.36	4.58008
10.365	4.4043
10.37	4.14063
10.375	4.05273
10.38	3.70117
10.385	3.61328
10.39	3.52539
10.395	3.17383
10.4	3.08594
10.405	2.99805
10.41	2.73437
10.415	2.64648
10.42	2.55859
10.425	2.29492
10.43	2.20703
10.435	2.11914
10.44	1.94336
10.445	1.76758
10.45	1.67969
10.455	1.24023
10.46	1.15234
10.465	0.888672
10.47	0.800781
10.475	0.712891
10.48	0.449219
10.485	0.361328
10.49	0.273438
10.495	0.0976562
10.5	0.00976562
10.505	-0.078125
10.51	-0.253906
10.515	-0.341797
10.52	-0.429688
10.525	-0.693359
10.53	-0.78125
10.535	-0.869141
10.54	-1.13281
10.545	-1.2207
10.55	-1.30859
10.555	-1.48438
10.56	-1.57227
10.565	-1.57227
10.57	-1.83594
10.575	-1.92383
10.58	-2.01172
10.585	-2.36328
10.59	-2.45117
10.595	-2.53906
10.6	-2.71484
10.605	-2.80273
10.61	-2.89063
10.615	-3.1543
10.62	-3.1543
10.625	-3.24219
10.63	-3.33008
10.635	-3.50586
10.64	-3.59375
10.645	-3.68164
10.65	-3.76953
10.655	-3.94531
10.66	-4.0332
10.665	-4.0332
10.67	-4.29688
10.675	-4.38477
10.68	-4.56055
10.685	-4.56055
10.69	-4.64844
10.695	-4.73633
10.7	-4.82422
10.705	-4.91211
10.71	-5
10.715	-5.08789
10.72	-5.08789
10.725	-5.26367
10.73	-5.26367
10.735	-5.26367
10.74	-5.43945
10.745	-5.43945
10.75	-5.61523
10.755	-5.61523
10.76	-5.61523
10.765	-5.70313
10.77	-5.70313
10.775	-5.79102
10.78	-5.87891
10.785	-5.87891
10.79	-5.87891
10.795	-5.9668
10.8	-6.05469
10.805	-6.05469
10.81	-6.14258
10.815	-6.14258
10.82	-6.23047
10.825	-6.31836
10.83	-6.31836
10.835	-6.31836
10.84	-6.40625
10.845	-6.40625
10.85	-6.40625
10.855	-6.40625
10.86	-6.49414
10.865	-6.49414
10.87	-6.58203
10.875	-6.58203
10.88	-6.66992
10.885	-6.66992
10.89	-6.66992
10.895	-6.66992
10.9	-6.66992
10.905	-6.75781
10.91	-6.75781
10.915	-6.75781
10.92	-6.75781
10.925	-6.75781
10.93	-6.75781
10.935	-6.8457
10.94	-6.8457
10.945	-6.8457
10.95	-6.8457
10.955	-6.8457
10.96	-6.8457
10.965	-6.93359
10.97	-6.93359
10.975	-6.93359
10.98	-6.93359
10.985	-7.02148
10.99	-7.02148
10.995	-7.02148
11	-7.02148
11.005	-7.10938
11.01	-7.10938
11.015	-7.10938
11.02	-7.10938
11.025	-7.10938
11.03	-7.10938
11.035	-7.10938
11.04	-7.19727
11.045	-7.19727
11.05	-7.19727
11.055	-7.28516
11.06	-7.28516
11.065	-7.28516
11.07	-7.28516
11.075	-7.28516
11.08	-7.37305
11.085	-7.37305
11.09	-7.37305
11.095	-7.37305
11.1	-7.37305
11.105	-7.37305
11.11	-7.46094
11.115	-7.46094
11.12	-7.46094
11.125	-7.46094
11.13	-7.54883
11.135	-7.54883
11.14	-7.54883
11.145	-7.54883
11.15	-7.63672
11.155	-7.63672
11.16	-7.63672
11.165	-7.63672
11.17	-7.72461
11.175	-7.72461
11.18	-7.72461
11.185	-7.8125
11.19	-7.8125
11.195	-7.8125
11.2	-7.8125
11.205	-7.8125
11.21	-7.8125
11.215	-7.90039
11.22	-7.90039
11.225	-7.90039
11.23	-7.98828
11.235	-7.98828
11.24	-7.98828
11.245	-7.98828
11.25	-8.07617
11.255	-8.07617
11.26	-8.07617
11.265	-8.07617
11.27	-8.16406
11.275	-8.16406
11.28	-8.16406
11.285	-8.16406
11.29	-8.16406
11.295	-8.25195
11.3	-8.25195
11.305	-8.25195
11.31	-8.25195
11.315	-8.33984
11.32	-8.33984
11.325	-8.33984
11.33	-8.42773
11.335	-8.42773
11.34	-8.42773
11.345	-8.42773
11.35	-8.42773
11.355	-8.51563
11.36	-8.51563
11.365	-8.51563
11.37	-8.51563
11.375	-8.51563
11.38	-8.51563
11.385	-8.60352
11.39	-8.60352
11.395	-8.60352
11.4	-8.60352
11.405	-8.60352
11.41	-8.60352
11.415	-8.69141
11.42	-8.69141
11.425	-8.69141
11.43	-8.69141
11.435	-8.69141
11.44	-8.69141
11.445	-8.7793
11.45	-8.7793
11.455	-8.7793
11.46	-8.7793
11.465	-8.7793
11.47	-8.7793
11.475	-8.7793
11.48	-8.7793
11.485	-8.86719
11.49	-8.86719
11.495	-8.86719
11.5	-8.86719
11.505	-8.86719
11.51	-8.86719
11.515	-8.86719
11.52	-8.86719
11.525	-8.86719
11.53	-8.86719
11.535	-8.95508
11.54	-8.95508
11.545	-8.95508
11.55	-8.95508
11.555	-8.95508
11.56	-8.95508
11.565	-8.95508
11.57	-8.95508
11.575	-8.95508
11.58	-8.95508
11.585	-8.95508
11.59	-8.95508
11.595	-8.95508
11.6	-9.04297
11.605	-9.04297
11.61	-9.04297
11.615	-9.04297
11.62	-9.04297
11.625	-9.04297
11.63	-9.04297
11.635	-9.04297
11.64	-9.04297
11.645	-9.04297
11.65	-9.04297
11.655	-9.04297
11.66	-9.13086
11.665	-9.13086
11.67	-9.13086
11.675	-9.13086
11.68	-9.13086
11.685	-9.13086
11.69	-9.13086
11.695	-9.13086
11.7	-9.13086
11.705	-9.13086
11.71	-9.13086
11.715	-9.13086
11.72	-9.13086
11.725	-9.13086
11.73	-9.13086
11.735	-9.13086
11.74	-9.13086
11.745	-9.13086
11.75	-9.13086
11.755	-9.13086
11.76	-9.21875
11.765	-9.21875
11.77	-9.21875
11.775	-9.21875
11.78	-9.21875
11.785	-9.21875
11.79	-9.21875
11.795	-9.21875
11.8	-9.21875
11.805	-9.21875
11.81	-9.21875
11.815	-9.21875
11.82	-9.21875
11.825	-9.21875
11.83	-9.21875
11.835	-9.21875
11.84	-9.21875
11.845	-9.21875
11.85	-9.21875
11.855	-9.21875
11.86	-9.21875
11.865	-9.21875
11.87	-9.30664
11.875	-9.30664
11.88	-9.30664
11.885	-9.30664
11.89	-9.30664
11.895	-9.30664
11.9	-9.30664
11.905	-9.30664
11.91	-9.30664
11.915	-9.30664
11.92	-9.30664
11.925	-9.30664
11.93	-9.30664
11.935	-9.30664
11.94	-9.30664
11.945	-9.30664
11.95	-9.30664
11.955	-9.30664
11.96	-9.30664
11.965	-9.30664
11.97	-9.30664
11.975	-9.30664
11.98	-9.30664
11.985	-9.39453
11.99	-9.39453
11.995	-9.39453
12	-9.39453
12.005	-9.39453
12.01	-9.39453
12.015	-9.39453
12.02	-9.39453
12.025	-9.39453
12.03	-9.39453
12.035	-9.39453
12.04	-9.39453
12.045	-9.39453
12.05	-9.39453
12.055	-9.39453
12.06	-9.39453
12.065	-9.39453
12.07	-9.39453
12.075	-9.39453
12.08	-9.39453
12.085	-9.48242
12.09	-9.48242
12.095	-9.48242
12.1	-9.48242
12.105	-9.48242
12.11	-9.48242
12.115	-9.48242
12.12	-9.48242
12.125	-9.48242
12.13	-9.48242
12.135	-9.48242
12.14	-9.48242
12.145	-9.48242
12.15	-9.48242
12.155	-9.48242
12.16	-9.48242
12.165	-9.48242
12.17	-9.48242
12.175	-9.48242
12.18	-9.48242
12.185	-9.48242
12.19	-9.48242
12.195	-9.48242
12.2	-9.48242
12.205	-9.48242
12.21	-9.48242
12.215	-9.48242
12.22	-9.48242
12.225	-9.57031
12.23	-9.57031
12.235	-9.57031
12.24	-9.57031
12.245	-9.57031
12.25	-9.57031
12.255	-9.57031
12.26	-9.57031
12.265	-9.57031
12.27	-9.57031
12.275	-9.57031
12.28	-9.57031
12.285	-9.57031
12.29	-9.57031
12.295	-9.57031
12.3	-9.57031
12.305	-9.57031
12.31	-9.57031
12.315	-9.57031
12.32	-9.57031
12.325	-9.57031
12.33	-9.57031
12.335	-9.57031
12.34	-9.57031
12.345	-9.57031
12.35	-9.57031
12.355	-9.57031
12.36	-9.57031
12.365	-9.57031
12.37	-9.57031
12.375	-9.57031
12.38	-9.57031
12.385	-9.57031
12.39	-9.57031
12.395	-9.57031
12.4	-9.57031
12.405	-9.6582
12.41	-9.6582
12.415	-9.6582
12.42	-9.6582
12.425	-9.6582
12.43	-9.6582
12.435	-9.6582
12.44	-9.6582
12.445	-9.6582
12.45	-9.6582
12.455	-9.6582
12.46	-9.6582
12.465	-9.6582
12.47	-9.6582
12.475	-9.6582
12.48	-9.6582
12.485	-9.6582
12.49	-9.6582
12.495	-9.6582
12.5	-9.6582
12.505	-9.6582
12.51	-9.6582
12.515	-9.6582
12.52	-9.6582
12.525	-9.6582
12.53	-9.6582
12.535	-9.6582
12.54	-9.6582
12.545	-9.6582
12.55	-9.6582
12.555	-9.6582
12.56	-9.6582
12.565	-9.6582
12.57	-9.6582
12.575	-9.6582
12.58	-9.6582
12.585	-9.6582
12.59	-9.6582
12.595	-9.6582
12.6	-9.6582
12.605	-9.6582
12.61	-9.6582
12.615	-9.6582
12.62	-9.6582
12.625	-9.6582
12.63	-9.6582
12.635	-9.6582
12.64	-9.6582
12.645	-9.6582
12.65	-9.6582
12.655	-9.6582
12.66	-9.6582
12.665	-9.6582
12.67	-9.6582
12.675	-9.6582
12.68	-9.6582
12.685	-9.6582
12.69	-9.6582
12.695	-9.6582
12.7	-9.6582
12.705	-9.6582
12.71	-9.6582
12.715	-9.6582
12.72	-9.6582
12.725	-9.6582
12.73	-9.6582
12.735	-9.6582
12.74	-9.6582
12.745	-9.6582
12.75	-9.74609
12.755	-9.74609
12.76	-9.74609
12.765	-9.74609
12.77	-9.74609
12.775	-9.74609
12.78	-9.74609
12.785	-9.74609
12.79	-9.74609
12.795	-9.74609
12.8	-9.74609
12.805	-9.74609
12.81	-9.74609
12.815	-9.74609
12.82	-9.74609
12.825	-9.74609
12.83	-9.74609
12.835	-9.74609
12.84	-9.74609
12.845	-9.74609
12.85	-9.74609
12.855	-9.74609
12.86	-9.74609
12.865	-9.74609
12.87	-9.74609
12.875	-9.74609
12.88	-9.74609
12.885	-9.74609
12.89	-9.74609
12.895	-9.74609
12.9	-9.74609
12.905	-9.74609
12.91	-9.74609
12.915	-9.74609
12.92	-9.74609
12.925	-9.74609
12.93	-9.74609
12.935	-9.74609
12.94	-9.74609
12.945	-9.74609
12.95	-9.74609
12.955	-9.74609
12.96	-9.74609
12.965	-9.74609
12.97	-9.74609
12.975	-9.74609
12.98	-9.74609
12.985	-9.74609
12.99	-9.74609
12.995	-9.74609
13	-9.74609
13.005	-9.74609
13.01	-9.74609
13.015	-9.74609
13.02	-9.74609
13.025	-9.74609
13.03	-9.74609
13.035	-9.74609
13.04	-9.74609
13.045	-9.74609
13.05	-9.74609
13.055	-9.74609
13.06	-9.74609
13.065	-9.74609
13.07	-9.74609
13.075	-9.74609
13.08	-9.74609
13.085	-9.74609
13.09	-9.74609
13.095	-9.74609
13.1	-9.74609
13.105	-9.74609
13.11	-9.74609
13.115	-9.74609
13.12	-9.74609
13.125	-9.74609
13.13	-9.74609
13.135	-9.74609
13.14	-9.74609
13.145	-9.74609
13.15	-9.74609
13.155	-9.74609
13.16	-9.74609
13.165	-9.74609
13.17	-9.74609
13.175	-9.74609
13.18	-9.74609
13.185	-9.74609
13.19	-9.74609
13.195	-9.74609
13.2	-9.74609
13.205	-9.74609
13.21	-9.74609
13.215	-9.74609
13.22	-9.74609
13.225	-9.74609
13.23	-9.74609
13.235	-9.74609
13.24	-9.74609
13.245	-9.74609
13.25	-9.74609
13.255	-9.74609
13.26	-9.74609
13.265	-9.74609
13.27	-9.74609
13.275	-9.74609
13.28	-9.74609
13.285	-9.74609
13.29	-9.74609
13.295	-9.74609
13.3	-9.74609
13.305	-9.74609
13.31	-9.74609
13.315	-9.74609
13.32	-9.74609
13.325	-9.74609
13.33	-9.74609
13.335	-9.74609
13.34	-9.74609
13.345	-9.74609
13.35	-9.74609
13.355	-9.83398
13.36	-9.83398
13.365	-9.83398
13.37	-9.83398
13.375	-9.83398
13.38	-9.83398
13.385	-9.83398
13.39	-9.83398
13.395	-9.83398
13.4	-9.83398
13.405	-9.83398
13.41	-9.83398
13.415	-9.83398
13.42	-9.83398
13.425	-9.83398
13.43	-9.83398
13.435	-9.83398
13.44	-9.83398
13.445	-9.83398
13.45	-9.83398
13.455	-9.83398
13.46	-9.83398
13.465	-9.83398
13.47	-9.83398
13.475	-9.83398
13.48	-9.83398
13.485	-9.83398
13.49	-9.83398
13.495	-9.83398
13.5	-9.83398
13.505	-9.83398
13.51	-9.83398
13.515	-9.83398
13.52	-9.83398
13.525	-9.83398
13.53	-9.83398
13.535	-9.83398
13.54	-9.83398
13.545	-9.83398
13.55	-9.83398
13.555	-9.83398
13.56	-9.83398
13.565	-9.83398
13.57	-9.83398
13.575	-9.83398
13.58	-9.83398
13.585	-9.83398
13.59	-9.83398
13.595	-9.83398
13.6	-9.83398
13.605	-9.83398
13.61	-9.83398
13.615	-9.83398
13.62	-9.83398
13.625	-9.83398
13.63	-9.83398
13.635	-9.83398
13.64	-9.83398
13.645	-9.83398
13.65	-9.83398
13.655	-9.83398
13.66	-9.83398
13.665	-9.83398
13.67	-9.83398
13.675	-9.83398
13.68	-9.83398
13.685	-9.83398
13.69	-9.83398
13.695	-9.83398
13.7	-9.83398
13.705	-9.83398
13.71	-9.83398
13.715	-9.83398
13.72	-9.83398
13.725	-9.83398
13.73	-9.83398
13.735	-9.83398
13.74	-9.83398
13.745	-9.83398
13.75	-9.83398
13.755	-9.83398
13.76	-9.83398
13.765	-9.83398
13.77	-9.83398
13.775	-9.83398
13.78	-9.83398
13.785	-9.83398
13.79	-9.83398
13.795	-9.83398
13.8	-9.83398
13.805	-9.83398
13.81	-9.83398
13.815	-9.83398
13.82	-9.83398
13.825	-9.83398
13.83	-9.83398
13.835	-9.83398
13.84	-9.83398
13.845	-9.83398
13.85	-9.83398
13.855	-9.83398
13.86	-9.83398
13.865	-9.83398
13.87	-9.83398
13.875	-9.83398
13.88	-9.83398
13.885	-9.83398
13.89	-9.83398
13.895	-9.83398
13.9	-9.83398
13.905	-9.83398
13.91	-9.83398
13.915	-9.83398
13.92	-9.83398
13.925	-9.83398
13.93	-9.83398
13.935	-9.83398
13.94	-9.83398
13.945	-9.83398
13.95	-9.83398
13.955	-9.83398
13.96	-9.83398
13.965	-9.83398
13.97	-9.83398
13.975	-9.83398
13.98	-9.83398
13.985	-9.83398
13.99	-9.83398
13.995	-9.83398
14	-9.83398
14.005	-9.83398
14.01	-9.83398
14.015	-9.83398
14.02	-9.83398
14.025	-9.83398
14.03	-9.83398
14.035	-9.83398
14.04	-9.83398
14.045	-9.83398
14.05	-9.83398
14.055	-9.83398
14.06	-9.83398
14.065	-9.83398
14.07	-9.83398
14.075	-9.83398
14.08	-9.83398
14.085	-9.83398
14.09	-9.83398
14.095	-9.83398
14.1	-9.83398
14.105	-9.83398
14.11	-9.83398
14.115	-9.83398
14.12	-9.83398
14.125	-9.83398
14.13	-9.83398
14.135	-9.83398
14.14	-9.83398
14.145	-9.83398
14.15	-9.83398
14.155	-9.83398
14.16	-9.83398
14.165	-9.83398
14.17	-9.83398
14.175	-9.83398
14.18	-9.83398
14.185	-9.83398
14.19	-9.83398
14.195	-9.83398
14.2	-9.83398
14.205	-9.83398
14.21	-9.83398
14.215	-9.83398
14.22	-9.83398
14.225	-9.83398
14.23	-9.83398
14.235	-9.83398
14.24	-9.83398
14.245	-9.83398
14.25	-9.83398
14.255	-9.83398
14.26	-9.83398
14.265	-9.83398
14.27	-9.83398
14.275	-9.83398
14.28	-9.83398
14.285	-9.83398
14.29	-9.83398
14.295	-9.83398
14.3	-9.83398
14.305	-9.83398
14.31	-9.83398
14.315	-9.83398
14.32	-9.83398
14.325	-9.83398
14.33	-9.83398
14.335	-9.83398
14.34	-9.83398
14.345	-9.83398
14.35	-9.83398
14.355	-9.83398
14.36	-9.83398
14.365	-9.83398
14.37	-9.83398
14.375	-9.83398
14.38	-9.83398
14.385	-9.83398
14.39	-9.83398
14.395	-9.83398
14.4	-9.83398
14.405	-9.83398
14.41	-9.83398
14.415	-9.83398
14.42	-9.83398
14.425	-9.83398
14.43	-9.83398
14.435	-9.83398
14.44	-9.83398
14.445	-9.83398
14.45	-9.83398
14.455	-9.83398
14.46	-9.83398
14.465	-9.83398
14.47	-9.92188
14.475	-9.92188
14.48	-9.92188
14.485	-9.92188
14.49	-9.92188
14.495	-9.92188
14.5	-9.92188
14.505	-9.92188
14.51	-9.92188
14.515	-9.92188
14.52	-9.92188
14.525	-9.92188
14.53	-9.92188
14.535	-9.92188
14.54	-9.92188
14.545	-9.92188
14.55	-9.92188
14.555	-9.92188
14.56	-9.92188
14.565	-9.92188
14.57	-9.92188
14.575	-9.92188
14.58	-9.92188
14.585	-9.92188
14.59	-9.92188
14.595	-9.92188
14.6	-9.92188
14.605	-9.92188
14.61	-9.92188
14.615	-9.92188
14.62	-9.92188
14.625	-9.92188
14.63	-9.92188
14.635	-9.92188
14.64	-9.92188
14.645	-9.92188
14.65	-9.92188
14.655	-9.92188
14.66	-9.92188
14.665	-9.92188
14.67	-9.92188
14.675	-9.92188
14.68	-9.92188
14.685	-9.92188
14.69	-9.92188
14.695	-9.92188
14.7	-9.92188
14.705	-9.92188
14.71	-9.92188
14.715	-9.92188
14.72	-9.92188
14.725	-9.92188
14.73	-9.92188
14.735	-9.92188
14.74	-9.92188
14.745	-9.92188
14.75	-9.92188
14.755	-9.92188
14.76	-9.83398
14.765	-9.83398
14.77	-9.83398
14.775	-9.83398
14.78	-9.83398
14.785	-9.83398
14.79	-9.83398
14.795	-9.83398
14.8	-9.83398
14.805	-9.83398
14.81	-9.83398
14.815	-9.83398
14.82	-9.83398
14.825	-9.83398
14.83	-9.83398
14.835	-9.83398
14.84	-9.83398
14.845	-9.83398
14.85	-9.83398
14.855	-9.83398
14.86	-9.83398
14.865	-9.83398
14.87	-9.83398
14.875	-9.83398
14.88	-9.83398
14.885	-9.83398
14.89	-9.83398
14.895	-9.83398
14.9	-9.83398
14.905	-9.83398
14.91	-9.83398
14.915	-9.83398
14.92	-9.83398
14.925	-9.83398
14.93	-9.83398
14.935	-9.83398
14.94	-9.83398
14.945	-9.83398
14.95	-9.83398
14.955	-9.83398
14.96	-9.83398
14.965	-9.83398
14.97	-9.83398
14.975	-9.83398
14.98	-9.83398
14.985	-9.83398
14.99	-9.83398
14.995	-9.83398
15	-9.83398
15.005	-9.83398
15.01	-9.83398
15.015	-9.83398
15.02	-9.83398
15.025	-9.83398
15.03	-9.83398
15.035	-9.83398
15.04	-9.83398
15.045	-9.83398
15.05	-9.83398
15.055	-9.83398
15.06	-9.83398
15.065	-9.83398
15.07	-9.83398
15.075	-9.83398
15.08	-9.83398
15.085	-9.83398
15.09	-9.83398
15.095	-9.83398
15.1	-9.83398
15.105	-9.83398
15.11	-9.83398
15.115	-9.83398
15.12	-9.74609
15.125	-9.74609
15.13	-9.74609
15.135	-9.74609
15.14	-9.74609
15.145	-9.74609
15.15	-9.6582
15.155	-9.6582
15.16	-9.6582
15.165	-9.57031
15.17	-9.57031
15.175	-9.48242
15.18	-9.48242
15.185	-9.48242
15.19	-9.30664
15.195	-9.30664
15.2	-9.13086
15.205	-9.13086
15.21	-9.04297
15.215	-8.95508
15.22	-8.95508
15.225	-8.86719
15.23	-8.69141
15.235	-8.60352
15.24	-8.33984
15.245	-8.33984
15.25	-8.25195
15.255	-7.98828
15.26	-7.90039
15.265	-7.8125
15.27	-7.63672
15.275	-7.54883
15.28	-7.46094
15.285	-7.19727
15.29	-7.10938
15.295	-6.8457
15.3	-6.75781
15.305	-6.66992
15.31	-6.49414
15.315	-6.40625
15.32	-6.31836
15.325	-6.05469
15.33	-5.9668
15.335	-5.87891
15.34	-5.61523
15.345	-5.43945
15.35	-5.35156
15.355	-5.08789
15.36	-5.08789
15.365	-4.64844
15.37	-4.56055
15.375	-4.47266
15.38	-4.29688
15.385	-4.12109
15.39	-4.0332
15.395	-3.85742
15.4	-3.68164
15.405	-3.59375
15.41	-3.33008
15.415	-3.24219
15.42	-3.1543
15.425	-2.80273
15.43	-2.71484
15.435	-2.62695
15.44	-2.27539
15.445	-2.1875
15.45	-2.09961
15.455	-1.83594
15.46	-1.74805
15.465	-1.66016
15.47	-1.39648
15.475	-1.30859
15.48	-1.2207
15.485	-0.869141
15.49	-0.78125
15.495	-0.693359
15.5	-0.429688
15.505	-0.341797
15.51	-0.253906
15.515	0.00976562
15.52	0.185547
15.525	0.361328
15.53	0.449219
15.535	0.537109
15.54	0.800781
15.545	0.976562
15.55	1.15234
15.555	1.24023
15.56	1.32812
15.565	1.5918
15.57	1.67969
15.575	1.76758
15.58	1.94336
15.585	2.03125
15.59	2.11914
15.595	2.29492
15.6	2.29492
15.605	2.38281
15.61	2.55859
15.615	2.64648
15.62	2.73437
15.625	2.91016
15.63	2.91016
15.635	2.99805
15.64	3.26172
15.645	3.34961
15.65	3.52539
15.655	3.61328
15.66	3.70117
15.665	3.78906
15.67	3.87695
15.675	4.05273
15.68	4.14063
15.685	4.31641
15.69	4.4043
15.695	4.4043
15.7	4.49219
15.705	4.58008
15.71	4.66797
15.715	4.75586
15.72	4.84375
15.725	4.93164
15.73	5.01953
15.735	5.10742
15.74	5.10742
15.745	5.2832
15.75	5.2832
15.755	5.2832
15.76	5.37109
15.765	5.45898
15.77	5.45898
15.775	5.54688
15.78	5.63477
15.785	5.63477
15.79	5.72266
15.795	5.72266
15.8	5.81055
15.805	5.81055
15.81	5.89844
15.815	5.89844
15.82	5.89844
15.825	5.98633
15.83	6.07422
15.835	6.07422
15.84	6.07422
15.845	6.16211
15.85	6.16211
15.855	6.16211
15.86	6.16211
15.865	6.25
15.87	6.25
15.875	6.33789
15.88	6.33789
15.885	6.33789
15.89	6.33789
15.895	6.42578
15.9	6.42578
15.905	6.42578
15.91	6.51367
15.915	6.51367
15.92	6.60156
15.925	6.60156
15.93	6.60156
15.935	6.60156
15.94	6.60156
15.945	6.68945
15.95	6.68945
15.955	6.68945
15.96	6.77734
15.965	6.77734
15.97	6.86523
15.975	6.86523
15.98	6.86523
15.985	6.86523
15.99	6.86523
15.995	6.95312
16	6.95312
16.005	6.95312
16.01	6.95312
16.015	7.04102
16.02	7.04102
16.025	7.04102
16.03	7.04102
16.035	7.12891
16.04	7.12891
16.045	7.12891
16.05	7.2168
16.055	7.2168
16.06	7.2168
16.065	7.2168
16.07	7.2168
16.075	7.30469
16.08	7.30469
16.085	7.30469
16.09	7.39258
16.095	7.39258
16.1	7.39258
16.105	7.39258
16.11	7.48047
16.115	7.48047
16.12	7.48047
16.125	7.56836
16.13	7.56836
16.135	7.56836
16.14	7.56836
16.145	7.65625
16.15	7.65625
16.155	7.65625
16.16	7.65625
16.165	7.74414
16.17	7.74414
16.175	7.74414
16.18	7.74414
16.185	7.83203
16.19	7.83203
16.195	7.83203
16.2	7.83203
16.205	7.91992
16.21	7.91992
16.215	8.00781
16.22	8.00781
16.225	8.00781
16.23	8.00781
16.235	8.0957
16.24	8.0957
16.245	8.0957
16.25	8.0957
16.255	8.0957
16.26	8.18359
16.265	8.18359
16.27	8.18359
16.275	8.18359
16.28	8.27148
16.285	8.27148
16.29	8.27148
16.295	8.27148
16.3	8.35937
16.305	8.35937
16.31	8.35937
16.315	8.35937
16.32	8.35937
16.325	8.35937
16.33	8.35937
16.335	8.44727
16.34	8.44727
16.345	8.44727
16.35	8.44727
16.355	8.44727
16.36	8.53516
16.365	8.53516
16.37	8.53516
16.375	8.53516
16.38	8.62305
16.385	8.62305
16.39	8.62305
16.395	8.62305
16.4	8.62305
16.405	8.62305
16.41	8.71094
16.415	8.71094
16.42	8.71094
16.425	8.71094
16.43	8.71094
16.435	8.71094
16.44	8.79883
16.445	8.79883
16.45	8.79883
16.455	8.88672
16.46	8.88672
16.465	8.88672
16.47	8.88672
16.475	8.88672
16.48	8.88672
16.485	8.97461
16.49	8.97461
16.495	8.97461
16.5	8.97461
16.505	8.97461
16.51	8.97461
16.515	8.97461
16.52	8.97461
16.525	8.97461
16.53	9.0625
16.535	9.0625
16.54	9.0625
16.545	9.0625
16.55	9.0625
16.555	9.0625
16.56	9.0625
16.565	9.0625
16.57	9.0625
16.575	9.0625
16.58	9.0625
16.585	9.15039
16.59	9.15039
16.595	9.15039
16.6	9.15039
16.605	9.15039
16.61	9.15039
16.615	9.15039
16.62	9.15039
16.625	9.15039
16.63	9.15039
16.635	9.23828
16.64	9.23828
16.645	9.23828
16.65	9.23828
16.655	9.23828
16.66	9.23828
16.665	9.23828
16.67	9.23828
16.675	9.32617
16.68	9.32617
16.685	9.32617
16.69	9.32617
16.695	9.32617
16.7	9.32617
16.705	9.32617
16.71	9.32617
16.715	9.32617
16.72	9.32617
16.725	9.41406
16.73	9.41406
16.735	9.41406
16.74	9.41406
16.745	9.41406
16.75	9.41406
16.755	9.41406
16.76	9.41406
16.765	9.41406
16.77	9.41406
16.775	9.41406
16.78	9.41406
16.785	9.41406
16.79	9.41406
16.795	9.41406
16.8	9.41406
16.805	9.50195
16.81	9.50195
16.815	9.50195
16.82	9.50195
16.825	9.50195
16.83	9.50195
16.835	9.50195
16.84	9.50195
16.845	9.50195
16.85	9.50195
16.855	9.50195
16.86	9.50195
16.865	9.50195
16.87	9.50195
16.875	9.50195
16.88	9.50195
16.885	9.50195
16.89	9.58984
16.895	9.58984
16.9	9.58984
16.905	9.58984
16.91	9.58984
16.915	9.58984
16.92	9.58984
16.925	9.58984
16.93	9.58984
16.935	9.58984
16.94	9.58984
16.945	9.67773
16.95	9.67773
16.955	9.67773
16.96	9.67773
16.965	9.67773
16.97	9.67773
16.975	9.67773
16.98	9.67773
16.985	9.67773
16.99	9.67773
16.995	9.67773
17	9.67773
17.005	9.67773
17.01	9.67773
17.015	9.67773
17.02	9.67773
17.025	9.67773
17.03	9.67773
17.035	9.67773
17.04	9.67773
17.045	9.67773
17.05	9.67773
17.055	9.67773
17.06	9.67773
17.065	9.67773
17.07	9.67773
17.075	9.67773
17.08	9.67773
17.085	9.67773
17.09	9.67773
17.095	9.67773
17.1	9.67773
17.105	9.67773
17.11	9.67773
17.115	9.67773
17.12	9.67773
17.125	9.76563
17.13	9.76563
17.135	9.76563
17.14	9.76563
17.145	9.76563
17.15	9.76563
17.155	9.76563
17.16	9.76563
17.165	9.76563
17.17	9.76563
17.175	9.76563
17.18	9.76563
17.185	9.76563
17.19	9.76563
17.195	9.76563
17.2	9.76563
17.205	9.76563
17.21	9.76563
17.215	9.76563
17.22	9.76563
17.225	9.76563
17.23	9.76563
17.235	9.76563
17.24	9.76563
17.245	9.76563
17.25	9.76563
17.255	9.76563
17.26	9.76563
17.265	9.76563
17.27	9.76563
17.275	9.76563
17.28	9.76563
17.285	9.76563
17.29	9.76563
17.295	9.76563
17.3	9.76563
17.305	9.76563
17.31	9.76563
17.315	9.76563
17.32	9.76563
17.325	9.76563
17.33	9.76563
17.335	9.76563
17.34	9.76563
17.345	9.76563
17.35	9.76563
17.355	9.76563
17.36	9.76563
17.365	9.76563
17.37	9.76563
17.375	9.76563
17.38	9.76563
17.385	9.76563
17.39	9.76563
17.395	9.76563
17.4	9.76563
17.405	9.76563
17.41	9.85352
17.415	9.85352
17.42	9.85352
17.425	9.85352
17.43	9.85352
17.435	9.85352
17.44	9.85352
17.445	9.85352
17.45	9.85352
17.455	9.85352
17.46	9.85352
17.465	9.85352
17.47	9.85352
17.475	9.85352
17.48	9.85352
17.485	9.85352
17.49	9.85352
17.495	9.85352
17.5	9.85352
17.505	9.85352
17.51	9.85352
17.515	9.85352
17.52	9.85352
17.525	9.85352
17.53	9.85352
17.535	9.85352
17.54	9.85352
17.545	9.85352
17.55	9.85352
17.555	9.85352
17.56	9.85352
17.565	9.85352
17.57	9.85352
17.575	9.85352
17.58	9.85352
17.585	9.85352
17.59	9.85352
17.595	9.85352
17.6	9.85352
17.605	9.85352
17.61	9.85352
17.615	9.85352
17.62	9.85352
17.625	9.85352
17.63	9.85352
17.635	9.85352
17.64	9.85352
17.645	9.85352
17.65	9.85352
17.655	9.85352
17.66	9.85352
17.665	9.85352
17.67	9.85352
17.675	9.85352
17.68	9.85352
17.685	9.85352
17.69	9.85352
17.695	9.85352
17.7	9.85352
17.705	9.85352
17.71	9.85352
17.715	9.85352
17.72	9.85352
17.725	9.85352
17.73	9.85352
17.735	9.85352
17.74	9.85352
17.745	9.85352
17.75	9.85352
17.755	9.85352
17.76	9.85352
17.765	9.85352
17.77	9.85352
17.775	9.85352
17.78	9.85352
17.785	9.85352
17.79	9.85352
17.795	9.85352
17.8	9.85352
17.805	9.85352
17.81	9.85352
17.815	9.94141
17.82	9.94141
17.825	9.94141
17.83	9.94141
17.835	9.94141
17.84	9.94141
17.845	9.94141
17.85	9.94141
17.855	9.94141
17.86	9.94141
17.865	9.94141
17.87	9.94141
17.875	9.94141
17.88	9.94141
17.885	9.94141
17.89	9.94141
17.895	9.94141
17.9	9.94141
17.905	9.94141
17.91	9.94141
17.915	9.94141
17.92	9.94141
17.925	9.94141
17.93	9.94141
17.935	9.94141
17.94	9.94141
17.945	9.94141
17.95	9.94141
17.955	9.94141
17.96	9.94141
17.965	9.94141
17.97	9.94141
17.975	9.94141
17.98	9.94141
17.985	9.94141
17.99	9.94141
17.995	9.94141
18	9.94141
18.005	9.94141
18.01	9.94141
18.015	9.94141
18.02	9.94141
18.025	9.94141
18.03	9.94141
18.035	9.94141
18.04	9.94141
18.045	9.85352
18.05	9.85352
18.055	9.85352
18.06	9.85352
18.065	9.85352
18.07	9.85352
18.075	9.85352
18.08	9.85352
18.085	9.85352
18.09	9.85352
18.095	9.85352
18.1	9.85352
18.105	9.85352
18.11	9.85352
18.115	9.85352
18.12	9.85352
18.125	9.85352
18.13	9.85352
18.135	9.85352
18.14	9.85352
18.145	9.85352
18.15	9.85352
18.155	9.85352
18.16	9.85352
18.165	9.85352
18.17	9.94141
18.175	9.94141
18.18	9.94141
18.185	9.94141
18.19	9.94141
18.195	9.94141
18.2	9.94141
18.205	9.94141
18.21	9.94141
18.215	9.94141
18.22	9.94141
18.225	9.94141
18.23	9.94141
18.235	9.94141
18.24	9.94141
18.245	9.94141
18.25	9.94141
18.255	9.94141
18.26	9.94141
18.265	9.94141
18.27	9.94141
18.275	9.94141
18.28	9.94141
18.285	9.94141
18.29	9.94141
18.295	9.94141
18.3	9.94141
18.305	9.94141
18.31	9.94141
18.315	9.94141
18.32	9.94141
18.325	9.94141
18.33	9.94141
18.335	9.94141
18.34	9.94141
18.345	9.94141
18.35	9.94141
18.355	9.94141
18.36	9.94141
18.365	9.94141
18.37	9.94141
18.375	9.94141
18.38	9.94141
18.385	9.94141
18.39	9.94141
18.395	9.94141
18.4	9.94141
18.405	9.94141
18.41	9.94141
18.415	9.94141
18.42	9.94141
18.425	9.94141
18.43	9.94141
18.435	9.94141
18.44	9.94141
18.445	9.94141
18.45	9.94141
18.455	9.94141
18.46	9.94141
18.465	9.94141
18.47	9.94141
18.475	9.94141
18.48	9.94141
18.485	9.94141
18.49	9.94141
18.495	9.94141
18.5	9.94141
18.505	9.94141
18.51	9.94141
18.515	9.94141
18.52	9.94141
18.525	9.94141
18.53	9.94141
18.535	9.94141
18.54	9.94141
18.545	9.94141
18.55	9.94141
18.555	9.94141
18.56	9.94141
18.565	9.94141
18.57	9.94141
18.575	9.94141
18.58	9.94141
18.585	9.94141
18.59	9.94141
18.595	9.94141
18.6	9.94141
18.605	9.94141
18.61	9.94141
18.615	9.85352
18.62	9.85352
18.625	9.85352
18.63	9.85352
18.635	9.85352
18.64	9.85352
18.645	9.85352
18.65	9.85352
18.655	9.85352
18.66	9.85352
18.665	9.85352
18.67	9.85352
18.675	9.85352
18.68	9.85352
18.685	9.85352
18.69	9.85352
18.695	9.85352
18.7	9.85352
18.705	9.85352
18.71	9.85352
18.715	9.85352
18.72	9.85352
18.725	9.85352
18.73	9.85352
18.735	9.85352
18.74	9.85352
18.745	9.85352
18.75	9.85352
18.755	9.85352
18.76	9.85352
18.765	9.85352
18.77	9.85352
18.775	9.85352
18.78	9.85352
18.785	9.85352
18.79	9.85352
18.795	9.85352
18.8	9.85352
18.805	9.85352
18.81	9.85352
18.815	9.85352
18.82	9.85352
18.825	9.85352
18.83	9.85352
18.835	9.85352
18.84	9.94141
18.845	9.94141
18.85	9.94141
18.855	9.94141
18.86	9.94141
18.865	9.94141
18.87	9.94141
18.875	9.94141
18.88	9.94141
18.885	9.94141
18.89	9.94141
18.895	9.94141
18.9	9.94141
18.905	9.94141
18.91	9.94141
18.915	9.94141
18.92	9.94141
18.925	9.94141
18.93	9.94141
18.935	9.94141
18.94	9.94141
18.945	9.94141
18.95	9.94141
18.955	9.94141
18.96	9.94141
18.965	9.94141
18.97	9.94141
18.975	9.94141
18.98	9.94141
18.985	9.94141
18.99	9.94141
18.995	9.94141
19	9.94141
19.005	9.94141
19.01	9.94141
19.015	9.94141
19.02	9.94141
19.025	9.94141
19.03	9.94141
19.035	9.94141
19.04	9.94141
19.045	9.94141
19.05	9.94141
19.055	9.94141
19.06	9.94141
19.065	9.94141
19.07	9.94141
19.075	9.94141
19.08	9.94141
19.085	9.94141
19.09	9.94141
19.095	9.94141
19.1	9.94141
19.105	9.94141
19.11	9.94141
19.115	9.94141
19.12	9.94141
19.125	9.94141
19.13	9.94141
19.135	9.94141
19.14	9.94141
19.145	9.94141
19.15	9.94141
19.155	9.94141
19.16	9.94141
19.165	9.94141
19.17	9.94141
19.175	9.94141
19.18	9.94141
19.185	9.94141
19.19	9.94141
19.195	9.94141
19.2	9.94141
19.205	9.94141
19.21	9.94141
19.215	9.94141
19.22	9.94141
19.225	9.94141
19.23	9.94141
19.235	9.94141
19.24	9.94141
19.245	9.94141
19.25	9.94141
19.255	9.94141
19.26	9.94141
19.265	9.94141
19.27	9.94141
19.275	9.94141
19.28	9.85352
19.285	9.85352
19.29	9.85352
19.295	9.85352
19.3	9.85352
19.305	9.85352
19.31	9.85352
19.315	9.85352
19.32	9.85352
19.325	9.85352
19.33	9.85352
19.335	9.85352
19.34	9.85352
19.345	9.85352
19.35	9.85352
19.355	9.85352
19.36	9.85352
19.365	9.85352
19.37	9.85352
19.375	9.85352
19.38	9.85352
19.385	9.85352
19.39	9.85352
19.395	9.85352
19.4	9.85352
19.405	9.85352
19.41	9.85352
19.415	9.85352
19.42	9.85352
19.425	9.85352
19.43	9.85352
19.435	9.85352
19.44	9.85352
19.445	9.85352
19.45	9.85352
19.455	9.94141
19.46	9.94141
19.465	9.94141
19.47	9.94141
19.475	9.94141
19.48	9.94141
19.485	9.94141
19.49	9.94141
19.495	9.94141
19.5	9.94141
19.505	9.94141
19.51	9.94141
19.515	9.94141
19.52	9.94141
19.525	9.94141
19.53	9.94141
19.535	9.94141
19.54	9.94141
19.545	9.94141
19.55	9.94141
19.555	9.94141
19.56	9.94141
19.565	9.94141
19.57	9.94141
19.575	9.94141
19.58	9.94141
19.585	9.94141
19.59	9.94141
19.595	9.94141
19.6	9.94141
19.605	9.94141
19.61	9.94141
19.615	9.94141
19.62	9.94141
19.625	9.94141
19.63	9.94141
19.635	9.94141
19.64	9.94141
19.645	9.94141
19.65	9.94141
19.655	9.94141
19.66	9.94141
19.665	9.94141
19.67	9.94141
19.675	9.94141
19.68	9.94141
19.685	9.94141
19.69	9.94141
19.695	9.94141
19.7	9.94141
19.705	9.94141
19.71	9.94141
19.715	9.94141
19.72	9.94141
19.725	9.94141
19.73	9.94141
19.735	9.94141
19.74	9.94141
19.745	9.94141
19.75	9.94141
19.755	9.94141
19.76	9.94141
19.765	9.94141
19.77	9.94141
19.775	9.94141
19.78	9.94141
19.785	9.94141
19.79	9.94141
19.795	9.94141
19.8	9.94141
19.805	9.94141
19.81	9.94141
19.815	9.94141
19.82	9.94141
19.825	9.94141
19.83	9.94141
19.835	9.94141
19.84	9.94141
19.845	9.94141
19.85	9.94141
19.855	9.94141
19.86	9.94141
19.865	9.94141
19.87	9.94141
19.875	9.94141
19.88	9.94141
19.885	9.94141
19.89	9.94141
19.895	9.94141
19.9	9.94141
19.905	9.94141
19.91	9.94141
19.915	9.94141
19.92	9.94141
19.925	9.94141
19.93	9.94141
19.935	9.94141
19.94	9.94141
19.945	9.94141
19.95	9.94141
19.955	9.94141
19.96	9.94141
19.965	9.94141
19.97	9.94141
19.975	9.94141
19.98	9.94141
19.985	9.94141
19.99	9.94141
19.995	9.94141
20	9.94141
20.005	9.94141
20.01	9.94141
20.015	9.94141
20.02	9.94141
20.025	9.94141
20.03	9.94141
20.035	9.94141
20.04	9.94141
20.045	9.85352
20.05	9.85352
20.055	9.85352
20.06	9.85352
20.065	9.85352
20.07	9.76563
20.075	9.76563
20.08	9.76563
20.085	9.67773
20.09	9.67773
20.095	9.67773
20.1	9.58984
20.105	9.50195
20.11	9.50195
20.115	9.41406
20.12	9.41406
20.125	9.32617
20.13	9.23828
20.135	9.23828
20.14	9.0625
20.145	8.97461
20.15	8.97461
20.155	8.79883
20.16	8.71094
20.165	8.71094
20.17	8.44727
20.175	8.35937
20.18	8.18359
20.185	8.0957
20.19	8.0957
20.195	7.83203
20.2	7.74414
20.205	7.48047
20.21	7.39258
20.215	7.30469
20.22	7.04102
20.225	7.04102
20.23	6.95312
20.235	6.68945
20.24	6.60156
20.245	6.33789
20.25	6.25
20.255	6.16211
20.26	5.98633
20.265	5.89844
20.27	5.81055
20.275	5.37109
20.28	5.2832
20.285	5.19531
20.29	4.75586
20.295	4.66797
20.3	4.58008
20.305	4.4043
20.31	4.31641
20.315	4.14063
20.32	3.87695
20.325	3.78906
20.33	3.70117
20.335	3.4375
20.34	3.34961
20.345	3.26172
20.35	3.08594
20.355	2.91016
20.36	2.82227
20.365	2.4707
20.37	2.38281
20.375	2.29492
20.38	2.11914
20.385	2.03125
20.39	1.94336
20.395	1.5918
20.4	1.50391
20.405	1.15234
20.41	1.06445
20.415	0.976562
20.42	0.712891
20.425	0.625
20.43	0.537109
20.435	0.273438
20.44	0.0976562
20.445	0.00976562
20.45	-0.166016
20.455	-0.253906
20.46	-0.341797
20.465	-0.693359
20.47	-0.78125
20.475	-1.13281
20.48	-1.2207
20.485	-1.30859
20.49	-1.57227
20.495	-1.66016
20.5	-1.74805
20.505	-2.09961
20.51	-2.1875
20.515	-2.27539
20.52	-2.62695
20.525	-2.71484
20.53	-2.71484
20.535	-3.06641
20.54	-3.1543
20.545	-3.24219
20.55	-3.50586
20.555	-3.59375
20.56	-3.59375
20.565	-3.85742
20.57	-3.94531
20.575	-3.94531
20.58	-4.12109
20.585	-4.20898
20.59	-4.29688
20.595	-4.47266
20.6	-4.47266
20.605	-4.56055
20.61	-4.64844
20.615	-4.73633
20.62	-4.82422
20.625	-4.91211
20.63	-5
20.635	-5
20.64	-5.08789
20.645	-5.17578
20.65	-5.17578
20.655	-5.26367
20.66	-5.35156
20.665	-5.35156
20.67	-5.35156
20.675	-5.43945
20.68	-5.43945
20.685	-5.52734
20.69	-5.52734
20.695	-5.61523
20.7	-5.61523
20.705	-5.70313
20.71	-5.70313
20.715	-5.70313
20.72	-5.70313
20.725	-5.79102
20.73	-5.79102
20.735	-5.87891
20.74	-5.87891
20.745	-5.87891
20.75	-5.87891
20.755	-5.9668
20.76	-5.9668
20.765	-6.05469
20.77	-6.05469
20.775	-6.05469
20.78	-6.14258
20.785	-6.14258
20.79	-6.14258
20.795	-6.14258
20.8	-6.14258
20.805	-6.23047
20.81	-6.23047
20.815	-6.23047
20.82	-6.23047
20.825	-6.23047
20.83	-6.31836
20.835	-6.31836
20.84	-6.31836
20.845	-6.31836
20.85	-6.31836
20.855	-6.40625
20.86	-6.40625
20.865	-6.40625
20.87	-6.49414
20.875	-6.49414
20.88	-6.49414
20.885	-6.49414
20.89	-6.49414
20.895	-6.58203
20.9	-6.58203
20.905	-6.58203
20.91	-6.58203
20.915	-6.66992
20.92	-6.66992
20.925	-6.66992
20.93	-6.75781
20.935	-6.75781
20.94	-6.75781
20.945	-6.75781
20.95	-6.75781
20.955	-6.8457
20.96	-6.8457
20.965	-6.8457
20.97	-6.93359
20.975	-6.93359
20.98	-6.93359
20.985	-7.02148
20.99	-7.02148
20.995	-7.02148
21	-7.10938
21.005	-7.10938
21.01	-7.10938
21.015	-7.19727
21.02	-7.19727
21.025	-7.19727
21.03	-7.28516
21.035	-7.28516
21.04	-7.37305
21.045	-7.37305
21.05	-7.37305
21.055	-7.37305
21.06	-7.46094
21.065	-7.46094
21.07	-7.46094
21.075	-7.46094
21.08	-7.54883
21.085	-7.54883
21.09	-7.54883
21.095	-7.63672
21.1	-7.63672
21.105	-7.63672
21.11	-7.72461
21.115	-7.72461
21.12	-7.72461
21.125	-7.8125
21.13	-7.8125
21.135	-7.8125
21.14	-7.8125
21.145	-7.8125
21.15	-7.90039
21.155	-7.90039
21.16	-7.90039
21.165	-7.90039
21.17	-7.90039
21.175	-7.90039
21.18	-7.98828
21.185	-7.98828
21.19	-7.98828
21.195	-7.98828
21.2	-8.07617
21.205	-8.07617
21.21	-8.07617
21.215	-8.07617
21.22	-8.07617
21.225	-8.16406
21.23	-8.16406
21.235	-8.16406
21.24	-8.16406
21.245	-8.16406
21.25	-8.25195
21.255	-8.25195
21.26	-8.25195
21.265	-8.25195
21.27	-8.25195
21.275	-8.25195
21.28	-8.33984
21.285	-8.33984
21.29	-8.33984
21.295	-8.33984
21.3	-8.33984
21.305	-8.33984
21.31	-8.33984
21.315	-8.42773
21.32	-8.42773
21.325	-8.42773
21.33	-8.42773
21.335	-8.42773
21.34	-8.42773
21.345	-8.42773
21.35	-8.51563
21.355	-8.51563
21.36	-8.51563
21.365	-8.51563
21.37	-8.51563
21.375	-8.51563
21.38	-8.51563
21.385	-8.51563
21.39	-8.51563
21.395	-8.51563
21.4	-8.60352
21.405	-8.60352
21.41	-8.60352
21.415	-8.60352
21.42	-8.60352
21.425	-8.60352
21.43	-8.60352
21.435	-8.60352
21.44	-8.60352
21.445	-8.60352
21.45	-8.69141
21.455	-8.69141
21.46	-8.69141
21.465	-8.69141
21.47	-8.69141
21.475	-8.69141
21.48	-8.7793
21.485	-8.7793
21.49	-8.7793
21.495	-8.7793
21.5	-8.7793
21.505	-8.7793
21.51	-8.7793
21.515	-8.7793
21.52	-8.7793
21.525	-8.7793
21.53	-8.86719
21.535	-8.86719
21.54	-8.86719
21.545	-8.86719
21.55	-8.86719
21.555	-8.86719
21.56	-8.86719
21.565	-8.86719
21.57	-8.86719
21.575	-8.86719
21.58	-8.86719
21.585	-8.86719
21.59	-8.95508
21.595	-8.95508
21.6	-8.95508
21.605	-8.95508
21.61	-8.95508
21.615	-8.95508
21.62	-8.95508
21.625	-8.95508
21.63	-8.95508
21.635	-9.04297
21.64	-9.04297
21.645	-9.04297
21.65	-9.04297
21.655	-9.04297
21.66	-9.04297
21.665	-9.04297
21.67	-9.04297
21.675	-9.04297
21.68	-9.04297
21.685	-9.04297
21.69	-9.13086
21.695	-9.13086
21.7	-9.13086
21.705	-9.13086
21.71	-9.13086
21.715	-9.13086
21.72	-9.13086
21.725	-9.13086
21.73	-9.13086
21.735	-9.21875
21.74	-9.21875
21.745	-9.21875
21.75	-9.21875
21.755	-9.21875
21.76	-9.21875
21.765	-9.21875
21.77	-9.21875
21.775	-9.21875
21.78	-9.21875
21.785	-9.21875
21.79	-9.21875
21.795	-9.21875
21.8	-9.30664
21.805	-9.30664
21.81	-9.30664
21.815	-9.30664
21.82	-9.30664
21.825	-9.30664
21.83	-9.30664
21.835	-9.30664
21.84	-9.30664
21.845	-9.30664
21.85	-9.30664
21.855	-9.30664
21.86	-9.30664
21.865	-9.30664
21.87	-9.30664
21.875	-9.30664
21.88	-9.30664
21.885	-9.30664
21.89	-9.30664
21.895	-9.30664
21.9	-9.30664
21.905	-9.39453
21.91	-9.39453
21.915	-9.39453
21.92	-9.39453
21.925	-9.39453
21.93	-9.39453
21.935	-9.39453
21.94	-9.39453
21.945	-9.39453
21.95	-9.39453
21.955	-9.39453
21.96	-9.39453
21.965	-9.39453
21.97	-9.39453
21.975	-9.39453
21.98	-9.39453
21.985	-9.39453
21.99	-9.39453
21.995	-9.39453
22	-9.39453
22.005	-9.39453
22.01	-9.39453
22.015	-9.39453
22.02	-9.39453
22.025	-9.39453
22.03	-9.48242
22.035	-9.48242
22.04	-9.48242
22.045	-9.48242
22.05	-9.48242
22.055	-9.48242
22.06	-9.48242
22.065	-9.48242
22.07	-9.48242
22.075	-9.48242
22.08	-9.48242
22.085	-9.48242
22.09	-9.48242
22.095	-9.48242
22.1	-9.48242
22.105	-9.48242
22.11	-9.48242
22.115	-9.48242
22.12	-9.48242
22.125	-9.48242
22.13	-9.48242
22.135	-9.48242
22.14	-9.48242
22.145	-9.48242
22.15	-9.48242
22.155	-9.48242
22.16	-9.48242
22.165	-9.48242
22.17	-9.48242
22.175	-9.48242
22.18	-9.48242
22.185	-9.48242
22.19	-9.48242
22.195	-9.48242
22.2	-9.48242
22.205	-9.48242
22.21	-9.48242
22.215	-9.48242
22.22	-9.48242
22.225	-9.48242
22.23	-9.48242
22.235	-9.48242
22.24	-9.48242
22.245	-9.48242
22.25	-9.48242
22.255	-9.48242
22.26	-9.48242
22.265	-9.48242
22.27	-9.48242
22.275	-9.48242
22.28	-9.48242
22.285	-9.48242
22.29	-9.48242
22.295	-9.48242
22.3	-9.48242
22.305	-9.48242
22.31	-9.48242
22.315	-9.48242
22.32	-9.48242
22.325	-9.48242
22.33	-9.48242
22.335	-9.48242
22.34	-9.48242
22.345	-9.48242
22.35	-9.48242
22.355	-9.48242
22.36	-9.48242
22.365	-9.48242
22.37	-9.48242
22.375	-9.48242
22.38	-9.48242
22.385	-9.48242
22.39	-9.48242
22.395	-9.48242
22.4	-9.48242
22.405	-9.48242
22.41	-9.57031
22.415	-9.57031
22.42	-9.57031
22.425	-9.57031
22.43	-9.57031
22.435	-9.57031
22.44	-9.57031
22.445	-9.57031
22.45	-9.57031
22.455	-9.57031
22.46	-9.57031
22.465	-9.57031
22.47	-9.57031
22.475	-9.57031
22.48	-9.57031
22.485	-9.57031
22.49	-9.57031
22.495	-9.57031
22.5	-9.57031
22.505	-9.57031
22.51	-9.57031
22.515	-9.57031
22.52	-9.57031
22.525	-9.57031
22.53	-9.57031
22.535	-9.57031
22.54	-9.57031
22.545	-9.57031
22.55	-9.57031
22.555	-9.57031
22.56	-9.57031
22.565	-9.57031
22.57	-9.57031
22.575	-9.57031
22.58	-9.57031
22.585	-9.57031
22.59	-9.57031
22.595	-9.57031
22.6	-9.57031
22.605	-9.57031
22.61	-9.57031
22.615	-9.57031
22.62	-9.57031
22.625	-9.57031
22.63	-9.57031
22.635	-9.57031
22.64	-9.57031
22.645	-9.57031
22.65	-9.57031
22.655	-9.57031
22.66	-9.57031
22.665	-9.57031
22.67	-9.57031
22.675	-9.57031
22.68	-9.57031
22.685	-9.57031
22.69	-9.57031
22.695	-9.57031
22.7	-9.57031
22.705	-9.57031
22.71	-9.57031
22.715	-9.57031
22.72	-9.57031
22.725	-9.57031
22.73	-9.57031
22.735	-9.57031
22.74	-9.57031
22.745	-9.57031
22.75	-9.57031
22.755	-9.57031
22.76	-9.57031
22.765	-9.57031
22.77	-9.57031
22.775	-9.57031
22.78	-9.57031
22.785	-9.57031
22.79	-9.57031
22.795	-9.57031
22.8	-9.57031
22.805	-9.57031
22.81	-9.57031
22.815	-9.57031
22.82	-9.57031
22.825	-9.57031
22.83	-9.57031
22.835	-9.57031
22.84	-9.57031
22.845	-9.57031
22.85	-9.57031
22.855	-9.57031
22.86	-9.57031
22.865	-9.57031
22.87	-9.57031
22.875	-9.57031
22.88	-9.57031
22.885	-9.57031
22.89	-9.57031
22.895	-9.57031
22.9	-9.57031
22.905	-9.57031
22.91	-9.57031
22.915	-9.57031
22.92	-9.57031
22.925	-9.57031
22.93	-9.57031
22.935	-9.57031
22.94	-9.57031
22.945	-9.57031
22.95	-9.57031
22.955	-9.57031
22.96	-9.57031
22.965	-9.57031
22.97	-9.57031
22.975	-9.57031
22.98	-9.57031
22.985	-9.57031
22.99	-9.57031
22.995	-9.57031
23	-9.57031
23.005	-9.57031
23.01	-9.57031
23.015	-9.57031
23.02	-9.57031
23.025	-9.57031
23.03	-9.57031
23.035	-9.57031
23.04	-9.57031
23.045	-9.57031
23.05	-9.57031
23.055	-9.57031
23.06	-9.57031
23.065	-9.57031
23.07	-9.57031
23.075	-9.57031
23.08	-9.57031
23.085	-9.57031
23.09	-9.57031
23.095	-9.57031
23.1	-9.57031
23.105	-9.57031
23.11	-9.57031
23.115	-9.57031
23.12	-9.57031
23.125	-9.57031
23.13	-9.57031
23.135	-9.57031
23.14	-9.57031
23.145	-9.57031
23.15	-9.57031
23.155	-9.57031
23.16	-9.57031
23.165	-9.57031
23.17	-9.57031
23.175	-9.57031
23.18	-9.57031
23.185	-9.57031
23.19	-9.57031
23.195	-9.57031
23.2	-9.57031
23.205	-9.57031
23.21	-9.57031
23.215	-9.57031
23.22	-9.57031
23.225	-9.57031
23.23	-9.57031
23.235	-9.57031
23.24	-9.57031
23.245	-9.57031
23.25	-9.57031
23.255	-9.57031
23.26	-9.57031
23.265	-9.57031
23.27	-9.57031
23.275	-9.57031
23.28	-9.57031
23.285	-9.57031
23.29	-9.6582
23.295	-9.6582
23.3	-9.6582
23.305	-9.6582
23.31	-9.6582
23.315	-9.6582
23.32	-9.6582
23.325	-9.6582
23.33	-9.6582
23.335	-9.6582
23.34	-9.6582
23.345	-9.6582
23.35	-9.6582
23.355	-9.6582
23.36	-9.6582
23.365	-9.6582
23.37	-9.6582
23.375	-9.6582
23.38	-9.6582
23.385	-9.6582
23.39	-9.6582
23.395	-9.6582
23.4	-9.6582
23.405	-9.6582
23.41	-9.6582
23.415	-9.6582
23.42	-9.6582
23.425	-9.6582
23.43	-9.6582
23.435	-9.6582
23.44	-9.6582
23.445	-9.6582
23.45	-9.6582
23.455	-9.6582
23.46	-9.6582
23.465	-9.6582
23.47	-9.6582
23.475	-9.6582
23.48	-9.6582
23.485	-9.6582
23.49	-9.6582
23.495	-9.6582
23.5	-9.6582
23.505	-9.6582
23.51	-9.6582
23.515	-9.6582
23.52	-9.6582
23.525	-9.6582
23.53	-9.6582
23.535	-9.6582
23.54	-9.6582
23.545	-9.6582
23.55	-9.6582
23.555	-9.6582
23.56	-9.6582
23.565	-9.6582
23.57	-9.6582
23.575	-9.6582
23.58	-9.57031
23.585	-9.57031
23.59	-9.57031
23.595	-9.57031
23.6	-9.57031
23.605	-9.57031
23.61	-9.57031
23.615	-9.57031
23.62	-9.57031
23.625	-9.57031
23.63	-9.57031
23.635	-9.57031
23.64	-9.57031
23.645	-9.57031
23.65	-9.57031
23.655	-9.57031
23.66	-9.57031
23.665	-9.57031
23.67	-9.57031
23.675	-9.57031
23.68	-9.57031
23.685	-9.57031
23.69	-9.57031
23.695	-9.57031
23.7	-9.57031
23.705	-9.57031
23.71	-9.57031
23.715	-9.57031
23.72	-9.57031
23.725	-9.57031
23.73	-9.57031
23.735	-9.57031
23.74	-9.57031
23.745	-9.57031
23.75	-9.57031
23.755	-9.57031
23.76	-9.57031
23.765	-9.57031
23.77	-9.57031
23.775	-9.57031
23.78	-9.57031
23.785	-9.57031
23.79	-9.57031
23.795	-9.6582
23.8	-9.6582
23.805	-9.6582
23.81	-9.6582
23.815	-9.6582
23.82	-9.6582
23.825	-9.6582
23.83	-9.6582
23.835	-9.6582
23.84	-9.6582
23.845	-9.6582
23.85	-9.6582
23.855	-9.6582
23.86	-9.6582
23.865	-9.6582
23.87	-9.6582
23.875	-9.6582
23.88	-9.6582
23.885	-9.6582
23.89	-9.6582
23.895	-9.6582
23.9	-9.6582
23.905	-9.6582
23.91	-9.6582
23.915	-9.6582
23.92	-9.6582
23.925	-9.6582
23.93	-9.6582
23.935	-9.6582
23.94	-9.6582
23.945	-9.6582
23.95	-9.6582
23.955	-9.6582
23.96	-9.6582
23.965	-9.6582
23.97	-9.6582
23.975	-9.6582
23.98	-9.6582
23.985	-9.6582
23.99	-9.6582
23.995	-9.6582
24	-9.6582
24.005	-9.6582
24.01	-9.6582
24.015	-9.6582
24.02	-9.6582
24.025	-9.6582
24.03	-9.6582
24.035	-9.6582
24.04	-9.6582
24.045	-9.6582
24.05	-9.6582
24.055	-9.6582
24.06	-9.6582
24.065	-9.6582
24.07	-9.6582
24.075	-9.6582
24.08	-9.6582
24.085	-9.6582
24.09	-9.6582
24.095	-9.6582
24.1	-9.6582
24.105	-9.6582
24.11	-9.6582
24.115	-9.6582
24.12	-9.6582
24.125	-9.6582
24.13	-9.6582
24.135	-9.6582
24.14	-9.6582
24.145	-9.6582
24.15	-9.6582
24.155	-9.6582
24.16	-9.6582
24.165	-9.6582
24.17	-9.6582
24.175	-9.6582
24.18	-9.6582
24.185	-9.6582
24.19	-9.6582
24.195	-9.6582
24.2	-9.6582
24.205	-9.6582
24.21	-9.6582
24.215	-9.6582
24.22	-9.6582
24.225	-9.6582
24.23	-9.6582
24.235	-9.6582
24.24	-9.6582
24.245	-9.6582
24.25	-9.6582
24.255	-9.6582
24.26	-9.6582
24.265	-9.6582
24.27	-9.6582
24.275	-9.6582
24.28	-9.6582
24.285	-9.6582
24.29	-9.6582
24.295	-9.6582
24.3	-9.6582
24.305	-9.6582
24.31	-9.6582
24.315	-9.6582
24.32	-9.6582
24.325	-9.6582
24.33	-9.6582
24.335	-9.6582
24.34	-9.6582
24.345	-9.6582
24.35	-9.6582
24.355	-9.6582
24.36	-9.6582
24.365	-9.6582
24.37	-9.6582
24.375	-9.6582
24.38	-9.6582
24.385	-9.6582
24.39	-9.6582
24.395	-9.6582
24.4	-9.6582
24.405	-9.6582
24.41	-9.6582
24.415	-9.6582
24.42	-9.6582
24.425	-9.6582
24.43	-9.6582
24.435	-9.6582
24.44	-9.6582
24.445	-9.74609
24.45	-9.74609
24.455	-9.74609
24.46	-9.74609
24.465	-9.74609
24.47	-9.74609
24.475	-9.74609
24.48	-9.74609
24.485	-9.74609
24.49	-9.74609
24.495	-9.74609
24.5	-9.74609
24.505	-9.74609
24.51	-9.74609
24.515	-9.74609
24.52	-9.74609
24.525	-9.74609
24.53	-9.74609
24.535	-9.74609
24.54	-9.74609
24.545	-9.74609
24.55	-9.74609
24.555	-9.74609
24.56	-9.74609
24.565	-9.74609
24.57	-9.74609
24.575	-9.74609
24.58	-9.74609
24.585	-9.74609
24.59	-9.74609
24.595	-9.74609
24.6	-9.74609
24.605	-9.74609
24.61	-9.74609
24.615	-9.74609
24.62	-9.74609
24.625	-9.74609
24.63	-9.74609
24.635	-9.74609
24.64	-9.74609
24.645	-9.74609
24.65	-9.74609
24.655	-9.74609
24.66	-9.74609
24.665	-9.74609
24.67	-9.74609
24.675	-9.74609
24.68	-9.74609
24.685	-9.74609
24.69	-9.74609
24.695	-9.74609
24.7	-9.74609
24.705	-9.74609
24.71	-9.74609
24.715	-9.74609
24.72	-9.74609
24.725	-9.74609
24.73	-9.74609
24.735	-9.74609
24.74	-9.74609
24.745	-9.74609
24.75	-9.74609
24.755	-9.74609
24.76	-9.74609
24.765	-9.74609
24.77	-9.74609
24.775	-9.74609
24.78	-9.74609
24.785	-9.74609
24.79	-9.74609
24.795	-9.74609
24.8	-9.74609
24.805	-9.74609
24.81	-9.74609
24.815	-9.74609
24.82	-9.74609
24.825	-9.74609
24.83	-9.74609
24.835	-9.74609
24.84	-9.74609
24.845	-9.74609
24.85	-9.74609
24.855	-9.74609
24.86	-9.74609
24.865	-9.74609
24.87	-9.74609
24.875	-9.74609
24.88	-9.74609
24.885	-9.74609
24.89	-9.74609
24.895	-9.74609
24.9	-9.74609
24.905	-9.74609
24.91	-9.74609
24.915	-9.74609
24.92	-9.74609
24.925	-9.74609
24.93	-9.74609
24.935	-9.74609
24.94	-9.74609
24.945	-9.74609
24.95	-9.74609
24.955	-9.74609
24.96	-9.74609
24.965	-9.74609
24.97	-9.74609
24.975	-9.74609
24.98	-9.74609
24.985	-9.74609
24.99	-9.74609
24.995	-9.74609
25	-9.74609
25.005	-9.74609
25.01	-9.74609
25.015	-9.74609
25.02	-9.74609
25.025	-9.74609
25.03	-9.74609
25.035	-9.74609
25.04	-9.74609
25.045	-9.74609
25.05	-9.74609
25.055	-9.74609
25.06	-9.74609
25.065	-9.74609
25.07	-9.6582
25.075	-9.6582
25.08	-9.6582
25.085	-9.6582
25.09	-9.6582
25.095	-9.6582
25.1	-9.6582
25.105	-9.57031
25.11	-9.57031
25.115	-9.57031
25.12	-9.57031
25.125	-9.48242
25.13	-9.48242
25.135	-9.48242
25.14	-9.39453
25.145	-9.39453
25.15	-9.39453
25.155	-9.30664
25.16	-9.30664
25.165	-9.30664
25.17	-9.21875
25.175	-9.21875
25.18	-9.13086
25.185	-9.13086
25.19	-9.04297
25.195	-8.95508
25.2	-8.86719
25.205	-8.86719
25.21	-8.7793
25.215	-8.69141
25.22	-8.69141
25.225	-8.51563
25.23	-8.42773
25.235	-8.42773
25.24	-8.25195
25.245	-8.16406
25.25	-8.16406
25.255	-7.90039
25.26	-7.8125
25.265	-7.72461
25.27	-7.54883
25.275	-7.46094
25.28	-7.37305
25.285	-7.10938
25.29	-7.02148
25.295	-6.8457
25.3	-6.66992
25.305	-6.58203
25.31	-6.49414
25.315	-6.14258
25.32	-6.05469
25.325	-5.9668
25.33	-5.52734
25.335	-5.35156
25.34	-5.26367
25.345	-5.08789
25.35	-5
25.355	-4.82422
25.36	-4.64844
25.365	-4.56055
25.37	-4.38477
25.375	-4.0332
25.38	-3.94531
25.385	-3.85742
25.39	-3.50586
25.395	-3.41797
25.4	-3.33008
25.405	-3.06641
25.41	-2.97852
25.415	-2.89063
25.42	-2.53906
25.425	-2.45117
25.43	-2.09961
25.435	-1.92383
25.44	-1.83594
25.445	-1.48438
25.45	-1.39648
25.455	-1.30859
25.46	-1.13281
25.465	-0.957031
25.47	-0.869141
25.475	-0.693359
25.48	-0.605469
25.485	-0.517578
25.49	-0.341797
25.495	-0.166016
25.5	-0.078125
25.505	0.0976562
25.51	0.185547
25.515	0.273438
25.52	0.449219
25.525	0.537109
25.53	0.625
25.535	0.800781
25.54	0.888672
25.545	0.976562
25.55	1.32812
25.555	1.41602
25.56	1.67969
25.565	1.76758
25.57	1.85547
25.575	2.03125
25.58	2.11914
25.585	2.20703
25.59	2.38281
25.595	2.4707
25.6	2.4707
25.605	2.64648
25.61	2.73437
25.615	2.82227
25.62	2.99805
25.625	3.08594
25.63	3.17383
25.635	3.34961
25.64	3.4375
25.645	3.52539
25.65	3.70117
25.655	3.78906
25.66	3.78906
25.665	3.96484
25.67	3.96484
25.675	4.05273
25.68	4.22852
25.685	4.31641
25.69	4.31641
25.695	4.4043
25.7	4.49219
25.705	4.58008
25.71	4.66797
25.715	4.66797
25.72	4.75586
25.725	4.84375
25.73	4.93164
25.735	5.01953
25.74	5.10742
25.745	5.19531
25.75	5.2832
25.755	5.2832
25.76	5.37109
25.765	5.37109
25.77	5.45898
25.775	5.45898
25.78	5.54688
25.785	5.54688
25.79	5.63477
25.795	5.63477
25.8	5.72266
25.805	5.81055
25.81	5.81055
25.815	5.89844
25.82	5.89844
25.825	5.89844
25.83	5.98633
25.835	6.07422
25.84	6.07422
25.845	6.07422
25.85	6.16211
25.855	6.16211
25.86	6.16211
25.865	6.25
25.87	6.25
25.875	6.33789
25.88	6.33789
25.885	6.33789
25.89	6.33789
25.895	6.42578
25.9	6.42578
25.905	6.51367
25.91	6.51367
25.915	6.51367
25.92	6.60156
25.925	6.60156
25.93	6.60156
25.935	6.60156
25.94	6.60156
25.945	6.68945
25.95	6.68945
25.955	6.68945
25.96	6.77734
25.965	6.86523
25.97	6.86523
25.975	6.86523
25.98	6.86523
25.985	6.95312
25.99	6.95312
25.995	6.95312
26	6.95312
26.005	7.04102
26.01	7.04102
26.015	7.12891
26.02	7.12891
26.025	7.12891
26.03	7.2168
26.035	7.2168
26.04	7.30469
26.045	7.30469
26.05	7.30469
26.055	7.39258
26.06	7.39258
26.065	7.39258
26.07	7.48047
26.075	7.48047
26.08	7.48047
26.085	7.48047
26.09	7.56836
26.095	7.56836
26.1	7.56836
26.105	7.56836
26.11	7.65625
26.115	7.65625
26.12	7.65625
26.125	7.65625
26.13	7.74414
26.135	7.74414
26.14	7.74414
26.145	7.74414
26.15	7.83203
26.155	7.83203
26.16	7.91992
26.165	7.91992
26.17	7.91992
26.175	7.91992
26.18	8.00781
26.185	8.00781
26.19	8.00781
26.195	8.00781
26.2	8.00781
26.205	8.00781
26.21	8.0957
26.215	8.0957
26.22	8.0957
26.225	8.0957
26.23	8.0957
26.235	8.18359
26.24	8.18359
26.245	8.18359
26.25	8.27148
26.255	8.27148
26.26	8.27148
26.265	8.27148
26.27	8.35937
26.275	8.35937
26.28	8.35937
26.285	8.35937
26.29	8.44727
26.295	8.44727
26.3	8.44727
26.305	8.44727
26.31	8.44727
26.315	8.53516
26.32	8.53516
26.325	8.53516
26.33	8.53516
26.335	8.53516
26.34	8.53516
26.345	8.62305
26.35	8.62305
26.355	8.62305
26.36	8.62305
26.365	8.62305
26.37	8.62305
26.375	8.71094
26.38	8.71094
26.385	8.71094
26.39	8.71094
26.395	8.71094
26.4	8.71094
26.405	8.79883
26.41	8.79883
26.415	8.79883
26.42	8.79883
26.425	8.79883
26.43	8.79883
26.435	8.79883
26.44	8.79883
26.445	8.79883
26.45	8.79883
26.455	8.79883
26.46	8.88672
26.465	8.88672
26.47	8.88672
26.475	8.88672
26.48	8.88672
26.485	8.88672
26.49	8.88672
26.495	8.88672
26.5	8.97461
26.505	8.97461
26.51	8.97461
26.515	8.97461
26.52	8.97461
26.525	8.97461
26.53	8.97461
26.535	8.97461
26.54	9.0625
26.545	9.0625
26.55	9.0625
26.555	9.0625
26.56	9.0625
26.565	9.0625
26.57	9.0625
26.575	9.15039
26.58	9.15039
26.585	9.15039
26.59	9.15039
26.595	9.15039
26.6	9.15039
26.605	9.15039
26.61	9.23828
26.615	9.23828
26.62	9.23828
26.625	9.23828
26.63	9.23828
26.635	9.23828
26.64	9.23828
26.645	9.23828
26.65	9.23828
26.655	9.23828
26.66	9.23828
26.665	9.23828
26.67	9.32617
26.675	9.32617
26.68	9.32617
26.685	9.32617
26.69	9.32617
26.695	9.32617
26.7	9.32617
26.705	9.32617
26.71	9.32617
26.715	9.32617
26.72	9.32617
26.725	9.32617
26.73	9.32617
26.735	9.32617
26.74	9.32617
26.745	9.41406
26.75	9.41406
26.755	9.41406
26.76	9.41406
26.765	9.41406
26.77	9.41406
26.775	9.41406
26.78	9.41406
26.785	9.41406
26.79	9.41406
26.795	9.41406
26.8	9.41406
26.805	9.41406
26.81	9.41406
26.815	9.50195
26.82	9.50195
26.825	9.50195
26.83	9.50195
26.835	9.50195
26.84	9.50195
26.845	9.50195
26.85	9.50195
26.855	9.50195
26.86	9.50195
26.865	9.50195
26.87	9.50195
26.875	9.50195
26.88	9.50195
26.885	9.50195
26.89	9.58984
26.895	9.58984
26.9	9.58984
26.905	9.58984
26.91	9.58984
26.915	9.58984
26.92	9.58984
26.925	9.58984
26.93	9.58984
26.935	9.58984
26.94	9.58984
26.945	9.58984
26.95	9.58984
26.955	9.58984
26.96	9.58984
26.965	9.58984
26.97	9.67773
26.975	9.67773
26.98	9.67773
26.985	9.67773
26.99	9.67773
26.995	9.67773
27	9.67773
27.005	9.67773
27.01	9.67773
27.015	9.67773
27.02	9.67773
27.025	9.67773
27.03	9.67773
27.035	9.67773
27.04	9.67773
27.045	9.67773
27.05	9.67773
27.055	9.67773
27.06	9.67773
27.065	9.67773
27.07	9.67773
27.075	9.67773
27.08	9.67773
27.085	9.76563
27.09	9.76563
27.095	9.76563
27.1	9.76563
27.105	9.76563
27.11	9.76563
27.115	9.76563
27.12	9.76563
27.125	9.76563
27.13	9.76563
27.135	9.76563
27.14	9.76563
27.145	9.76563
27.15	9.76563
27.155	9.76563
27.16	9.76563
27.165	9.76563
27.17	9.76563
27.175	9.76563
27.18	9.76563
27.185	9.76563
27.19	9.76563
27.195	9.76563
27.2	9.76563
27.205	9.76563
27.21	9.76563
27.215	9.76563
27.22	9.76563
27.225	9.76563
27.23	9.76563
27.235	9.76563
27.24	9.76563
27.245	9.76563
27.25	9.76563
27.255	9.76563
27.26	9.76563
27.265	9.76563
27.27	9.76563
27.275	9.76563
27.28	9.76563
27.285	9.76563
27.29	9.76563
27.295	9.76563
27.3	9.76563
27.305	9.76563
27.31	9.76563
27.315	9.76563
27.32	9.76563
27.325	9.76563
27.33	9.76563
27.335	9.76563
27.34	9.76563
27.345	9.76563
27.35	9.85352
27.355	9.85352
27.36	9.85352
27.365	9.85352
27.37	9.85352
27.375	9.85352
27.38	9.85352
27.385	9.85352
27.39	9.85352
27.395	9.85352
27.4	9.85352
27.405	9.85352
27.41	9.85352
27.415	9.85352
27.42	9.85352
27.425	9.85352
27.43	9.85352
27.435	9.85352
27.44	9.85352
27.445	9.85352
27.45	9.85352
27.455	9.85352
27.46	9.85352
27.465	9.85352
27.47	9.85352
27.475	9.85352
27.48	9.85352
27.485	9.85352
27.49	9.85352
27.495	9.85352
27.5	9.85352
27.505	9.85352
27.51	9.85352
27.515	9.85352
27.52	9.85352
27.525	9.85352
27.53	9.85352
27.535	9.85352
27.54	9.85352
27.545	9.85352
27.55	9.85352
27.555	9.85352
27.56	9.85352
27.565	9.85352
27.57	9.85352
27.575	9.85352
27.58	9.85352
27.585	9.85352
27.59	9.85352
27.595	9.85352
27.6	9.85352
27.605	9.85352
27.61	9.85352
27.615	9.85352
27.62	9.85352
27.625	9.85352
27.63	9.85352
27.635	9.85352
27.64	9.85352
27.645	9.85352
27.65	9.85352
27.655	9.85352
27.66	9.85352
27.665	9.85352
27.67	9.85352
27.675	9.85352
27.68	9.85352
27.685	9.85352
27.69	9.85352
27.695	9.85352
27.7	9.85352
27.705	9.85352
27.71	9.85352
27.715	9.85352
27.72	9.85352
27.725	9.85352
27.73	9.85352
27.735	9.85352
27.74	9.94141
27.745	9.94141
27.75	9.94141
27.755	9.94141
27.76	9.94141
27.765	9.94141
27.77	9.94141
27.775	9.94141
27.78	9.94141
27.785	9.94141
27.79	9.94141
27.795	9.94141
27.8	9.94141
27.805	9.94141
27.81	9.94141
27.815	9.94141
27.82	9.94141
27.825	9.94141
27.83	9.94141
27.835	9.94141
27.84	9.94141
27.845	9.94141
27.85	9.94141
27.855	9.94141
27.86	9.94141
27.865	9.94141
27.87	9.94141
27.875	9.94141
27.88	9.94141
27.885	9.94141
27.89	9.94141
27.895	9.94141
27.9	9.94141
27.905	9.94141
27.91	9.94141
27.915	9.94141
27.92	9.94141
27.925	9.94141
27.93	9.94141
27.935	9.94141
27.94	9.94141
27.945	9.94141
27.95	9.94141
27.955	9.94141
27.96	9.94141
27.965	9.94141
27.97	9.94141
27.975	9.94141
27.98	9.94141
27.985	9.94141
27.99	9.94141
27.995	9.94141
28	9.94141
28.005	9.94141
28.01	9.94141
28.015	9.94141
28.02	9.94141
28.025	9.94141
28.03	9.94141
28.035	9.94141
28.04	9.94141
28.045	9.94141
28.05	9.94141
28.055	9.85352
28.06	9.85352
28.065	9.85352
28.07	9.85352
28.075	9.85352
28.08	9.85352
28.085	9.85352
28.09	9.85352
28.095	9.85352
28.1	9.85352
28.105	9.85352
28.11	9.85352
28.115	9.85352
28.12	9.85352
28.125	9.85352
28.13	9.85352
28.135	9.85352
28.14	9.85352
28.145	9.85352
28.15	9.85352
28.155	9.85352
28.16	9.85352
28.165	9.85352
28.17	9.94141
28.175	9.94141
28.18	9.94141
28.185	9.94141
28.19	9.94141
28.195	9.94141
28.2	9.94141
28.205	9.94141
28.21	9.94141
28.215	9.94141
28.22	9.94141
28.225	9.94141
28.23	9.94141
28.235	9.94141
28.24	9.94141
28.245	9.94141
28.25	9.94141
28.255	9.94141
28.26	9.94141
28.265	9.94141
28.27	9.94141
28.275	9.94141
28.28	9.94141
28.285	9.94141
28.29	9.94141
28.295	9.94141
28.3	9.94141
28.305	9.94141
28.31	9.94141
28.315	9.94141
28.32	9.94141
28.325	9.94141
28.33	9.94141
28.335	9.94141
28.34	9.94141
28.345	9.94141
28.35	9.94141
28.355	9.94141
28.36	9.94141
28.365	9.94141
28.37	9.94141
28.375	9.94141
28.38	9.94141
28.385	10.0293
28.39	10.0293
28.395	10.0293
28.4	10.0293
28.405	10.0293
28.41	10.0293
28.415	10.0293
28.42	10.0293
28.425	10.0293
28.43	10.0293
28.435	10.0293
28.44	10.0293
28.445	10.0293
28.45	10.0293
28.455	10.0293
28.46	10.0293
28.465	10.0293
28.47	10.0293
28.475	10.0293
28.48	10.0293
28.485	10.0293
28.49	10.0293
28.495	10.0293
28.5	10.0293
28.505	10.0293
28.51	10.0293
28.515	10.0293
28.52	10.0293
28.525	10.0293
28.53	10.0293
28.535	10.0293
28.54	10.0293
28.545	10.0293
28.55	10.0293
28.555	10.0293
28.56	10.0293
28.565	10.0293
28.57	10.0293
28.575	10.0293
28.58	10.0293
28.585	10.0293
28.59	10.0293
28.595	10.0293
28.6	10.0293
28.605	10.0293
28.61	10.0293
28.615	10.0293
28.62	10.0293
28.625	10.0293
28.63	10.0293
28.635	10.0293
28.64	9.94141
28.645	9.94141
28.65	9.94141
28.655	9.94141
28.66	9.94141
28.665	9.94141
28.67	9.94141
28.675	9.94141
28.68	9.94141
28.685	9.94141
28.69	9.94141
28.695	9.94141
28.7	9.94141
28.705	9.94141
28.71	9.94141
28.715	9.94141
28.72	9.94141
28.725	9.94141
28.73	9.94141
28.735	9.94141
28.74	9.94141
28.745	9.94141
28.75	9.94141
28.755	9.94141
28.76	9.94141
28.765	9.94141
28.77	9.94141
28.775	9.94141
28.78	9.94141
28.785	9.94141
28.79	9.94141
28.795	9.94141
28.8	9.94141
28.805	9.94141
28.81	9.94141
28.815	9.94141
28.82	9.94141
28.825	9.94141
28.83	9.94141
28.835	9.94141
28.84	9.94141
28.845	9.94141
28.85	9.94141
28.855	9.94141
28.86	9.94141
28.865	9.94141
28.87	9.94141
28.875	9.94141
28.88	9.94141
28.885	9.94141
28.89	9.94141
28.895	9.94141
28.9	9.94141
28.905	9.94141
28.91	9.94141
28.915	9.94141
28.92	9.94141
28.925	9.94141
28.93	9.94141
28.935	9.94141
28.94	9.94141
28.945	9.94141
28.95	9.94141
28.955	9.94141
28.96	9.94141
28.965	9.94141
28.97	10.0293
28.975	10.0293
28.98	10.0293
28.985	10.0293
28.99	10.0293
28.995	10.0293
29	10.0293
29.005	10.0293
29.01	10.0293
29.015	10.0293
29.02	10.0293
29.025	10.0293
29.03	10.0293
29.035	10.0293
29.04	10.0293
29.045	10.0293
29.05	10.0293
29.055	10.0293
29.06	10.0293
29.065	10.0293
29.07	10.0293
29.075	10.0293
29.08	10.0293
29.085	10.0293
29.09	10.0293
29.095	10.0293
29.1	10.0293
29.105	10.0293
29.11	10.0293
29.115	10.0293
29.12	10.0293
29.125	10.0293
29.13	10.0293
29.135	9.94141
29.14	9.94141
29.145	9.94141
29.15	9.94141
29.155	9.94141
29.16	9.94141
29.165	9.94141
29.17	9.94141
29.175	9.94141
29.18	9.94141
29.185	9.94141
29.19	9.94141
29.195	9.94141
29.2	9.94141
29.205	9.94141
29.21	9.94141
29.215	9.94141
29.22	9.94141
29.225	9.94141
29.23	9.94141
29.235	9.94141
29.24	9.94141
29.245	9.94141
29.25	9.94141
29.255	9.94141
29.26	9.94141
29.265	9.94141
29.27	9.94141
29.275	9.94141
29.28	9.94141
29.285	9.94141
29.29	9.94141
29.295	9.94141
29.3	9.94141
29.305	9.94141
29.31	9.94141
29.315	9.94141
29.32	9.94141
29.325	9.94141
29.33	9.94141
29.335	9.94141
29.34	10.0293
29.345	10.0293
29.35	10.0293
29.355	10.0293
29.36	10.0293
29.365	10.0293
29.37	10.0293
29.375	10.0293
29.38	10.0293
29.385	10.0293
29.39	10.0293
29.395	10.0293
29.4	10.0293
29.405	10.0293
29.41	10.0293
29.415	10.0293
29.42	10.0293
29.425	10.0293
29.43	10.0293
29.435	10.0293
29.44	10.0293
29.445	10.0293
29.45	10.0293
29.455	10.0293
29.46	10.0293
29.465	10.0293
29.47	10.0293
29.475	10.0293
29.48	10.0293
29.485	10.0293
29.49	10.0293
29.495	10.0293
29.5	10.0293
29.505	10.0293
29.51	10.0293
29.515	10.0293
29.52	10.0293
29.525	10.0293
29.53	10.0293
29.535	10.0293
29.54	10.0293
29.545	10.0293
29.55	10.0293
29.555	10.0293
29.56	10.0293
29.565	10.0293
29.57	10.0293
29.575	9.94141
29.58	9.94141
29.585	9.94141
29.59	9.94141
29.595	9.94141
29.6	9.94141
29.605	9.94141
29.61	9.94141
29.615	9.94141
29.62	9.94141
29.625	9.94141
29.63	9.94141
29.635	9.94141
29.64	9.94141
29.645	9.94141
29.65	9.94141
29.655	9.94141
29.66	9.94141
29.665	9.94141
29.67	9.94141
29.675	9.94141
29.68	9.94141
29.685	9.94141
29.69	9.94141
29.695	9.94141
29.7	9.94141
29.705	9.94141
29.71	9.94141
29.715	9.94141
29.72	9.94141
29.725	9.94141
29.73	9.94141
29.735	9.94141
29.74	9.94141
29.745	9.94141
29.75	9.94141
29.755	9.94141
29.76	9.94141
29.765	9.94141
29.77	9.94141
29.775	9.94141
29.78	9.94141
29.785	9.94141
29.79	9.94141
29.795	9.94141
29.8	9.94141
29.805	9.94141
29.81	9.94141
29.815	9.94141
29.82	9.94141
29.825	9.94141
29.83	9.94141
29.835	9.94141
29.84	9.94141
29.845	9.94141
29.85	9.94141
29.855	9.94141
29.86	9.94141
29.865	9.94141
29.87	9.94141
29.875	9.94141
29.88	9.94141
29.885	9.94141
29.89	9.94141
29.895	9.94141
29.9	9.94141
29.905	9.94141
29.91	10.0293
29.915	10.0293
29.92	10.0293
29.925	10.0293
29.93	10.0293
29.935	10.0293
29.94	10.0293
29.945	10.0293
29.95	10.0293
29.955	10.0293
29.96	10.0293
29.965	10.0293
29.97	10.0293
29.975	10.0293
29.98	10.0293
29.985	10.0293
29.99	10.0293
29.995	10.0293
30	10.0293
30.005	10.0293
30.01	10.0293
30.015	10.0293
30.02	10.0293
30.025	10.0293
30.03	10.0293
30.035	10.0293
30.04	10.0293
30.045	10.0293
30.05	9.94141
30.055	9.94141
30.06	9.94141
30.065	9.94141
30.07	9.85352
30.075	9.85352
30.08	9.85352
30.085	9.85352
30.09	9.76563
30.095	9.76563
30.1	9.76563
30.105	9.67773
30.11	9.58984
30.115	9.58984
30.12	9.58984
30.125	9.50195
30.13	9.41406
30.135	9.41406
30.14	9.32617
30.145	9.32617
30.15	9.32617
30.155	9.0625
30.16	9.0625
30.165	8.97461
30.17	8.88672
30.175	8.79883
30.18	8.71094
30.185	8.62305
30.19	8.53516
30.195	8.53516
30.2	8.35937
30.205	8.35937
30.21	8.27148
30.215	8.00781
30.22	7.91992
30.225	7.83203
30.23	7.56836
30.235	7.56836
30.24	7.48047
30.245	7.2168
30.25	7.12891
30.255	7.04102
30.26	6.68945
30.265	6.60156
30.27	6.51367
30.275	6.25
30.28	6.16211
30.285	6.07422
30.29	5.81055
30.295	5.63477
30.3	5.37109
30.305	5.2832
30.31	5.19531
30.315	4.84375
30.32	4.75586
30.325	4.66797
30.33	4.4043
30.335	4.22852
30.34	4.14063
30.345	3.87695
30.35	3.70117
30.355	3.61328
30.36	3.17383
30.365	3.08594
30.37	2.99805
30.375	2.73437
30.38	2.64648
30.385	2.55859
30.39	2.20703
30.395	2.11914
30.4	1.85547
30.405	1.67969
30.41	1.5918
30.415	1.32812
30.42	1.24023
30.425	0.888672
30.43	0.800781
30.435	0.712891
30.44	0.449219
30.445	0.361328
30.45	0.273438
30.455	0.00976562
30.46	-0.078125
30.465	-0.166016
30.47	-0.517578
30.475	-0.605469
30.48	-0.693359
30.485	-0.957031
30.49	-1.04492
30.495	-1.04492
30.5	-1.30859
30.505	-1.39648
30.51	-1.57227
30.515	-1.74805
30.52	-1.74805
30.525	-2.09961
30.53	-2.09961
30.535	-2.36328
30.54	-2.36328
30.545	-2.45117
30.55	-2.62695
30.555	-2.71484
30.56	-2.71484
30.565	-2.89063
30.57	-2.97852
30.575	-2.97852
30.58	-3.24219
30.585	-3.33008
30.59	-3.33008
30.595	-3.59375
30.6	-3.59375
30.605	-3.85742
30.61	-3.85742
30.615	-4.0332
30.62	-4.12109
30.625	-4.29688
30.63	-4.29688
30.635	-4.29688
30.64	-4.47266
30.645	-4.47266
30.65	-4.56055
30.655	-4.64844
30.66	-4.73633
30.665	-4.82422
30.67	-4.82422
30.675	-4.82422
30.68	-4.91211
30.685	-4.91211
30.69	-5
30.695	-5
30.7	-5.08789
30.705	-5.08789
30.71	-5.08789
30.715	-5.08789
30.72	-5.17578
30.725	-5.17578
30.73	-5.26367
30.735	-5.26367
30.74	-5.26367
30.745	-5.26367
30.75	-5.35156
30.755	-5.35156
30.76	-5.43945
30.765	-5.43945
30.77	-5.43945
30.775	-5.52734
30.78	-5.52734
30.785	-5.52734
30.79	-5.52734
30.795	-5.61523
30.8	-5.61523
30.805	-5.61523
30.81	-5.70313
30.815	-5.70313
30.82	-5.70313
30.825	-5.79102
30.83	-5.79102
30.835	-5.79102
30.84	-5.79102
30.845	-5.87891
30.85	-5.87891
30.855	-5.87891
30.86	-5.87891
30.865	-5.9668
30.87	-5.9668
30.875	-5.9668
30.88	-6.05469
30.885	-6.05469
30.89	-6.05469
30.895	-6.14258
30.9	-6.14258
30.905	-6.14258
30.91	-6.23047
30.915	-6.23047
30.92	-6.23047
30.925	-6.31836
30.93	-6.31836
30.935	-6.31836
30.94	-6.40625
30.945	-6.40625
30.95	-6.40625
30.955	-6.49414
30.96	-6.49414
30.965	-6.49414
30.97	-6.58203
30.975	-6.58203
30.98	-6.66992
30.985	-6.66992
30.99	-6.66992
30.995	-6.75781
31	-6.75781
31.005	-6.8457
31.01	-6.8457
31.015	-6.8457
31.02	-6.93359
31.025	-7.02148
31.03	-7.02148
31.035	-7.02148
31.04	-7.10938
31.045	-7.10938
31.05	-7.10938
31.055	-7.19727
31.06	-7.19727
31.065	-7.28516
31.07	-7.37305
31.075	-7.37305
31.08	-7.37305
31.085	-7.46094
31.09	-7.46094
31.095	-7.54883
31.1	-7.54883
31.105	-7.54883
31.11	-7.54883
31.115	-7.54883
31.12	-7.63672
31.125	-7.63672
31.13	-7.63672
31.135	-7.72461
31.14	-7.72461
31.145	-7.72461
31.15	-7.8125
31.155	-7.8125
31.16	-7.8125
31.165	-7.90039
31.17	-7.90039
31.175	-7.90039
31.18	-7.90039
31.185	-7.90039
31.19	-7.98828
31.195	-7.98828
31.2	-7.98828
31.205	-8.07617
31.21	-8.07617
31.215	-8.07617
31.22	-8.07617
31.225	-8.07617
31.23	-8.07617
31.235	-8.07617
31.24	-8.16406
31.245	-8.16406
31.25	-8.16406
31.255	-8.16406
31.26	-8.16406
31.265	-8.16406
31.27	-8.25195
31.275	-8.25195
31.28	-8.25195
31.285	-8.25195
31.29	-8.25195
31.295	-8.25195
31.3	-8.25195
31.305	-8.25195
31.31	-8.33984
31.315	-8.33984
31.32	-8.33984
31.325	-8.33984
31.33	-8.33984
31.335	-8.33984
31.34	-8.33984
31.345	-8.42773
31.35	-8.42773
31.355	-8.42773
31.36	-8.42773
31.365	-8.42773
31.37	-8.42773
31.375	-8.42773
31.38	-8.42773
31.385	-8.42773
31.39	-8.51563
31.395	-8.51563
31.4	-8.51563
31.405	-8.51563
31.41	-8.51563
31.415	-8.51563
31.42	-8.51563
31.425	-8.51563
31.43	-8.51563
31.435	-8.51563
31.44	-8.51563
31.445	-8.51563
31.45	-8.51563
31.455	-8.60352
31.46	-8.60352
31.465	-8.60352
31.47	-8.60352
31.475	-8.60352
31.48	-8.60352
31.485	-8.60352
31.49	-8.60352
31.495	-8.60352
31.5	-8.60352
31.505	-8.60352
31.51	-8.60352
31.515	-8.60352
31.52	-8.60352
31.525	-8.69141
31.53	-8.69141
31.535	-8.69141
