time (s) - Measured	Pitch (deg) - Measured
0	0
0.005	-0.0878906
0.01	-0.0878906
0.015	-0.0878906
0.02	-0.175781
0.025	-0.175781
0.03	-0.175781
0.035	-0.175781
0.04	-0.175781
0.045	-0.175781
0.05	-0.175781
0.055	-0.175781
0.06	-0.175781
0.065	-0.175781
0.07	-0.175781
0.075	-0.0878906
0.08	-0.0878906
0.085	-0.0878906
0.09	-0.0878906
0.095	-0.0878906
0.1	-0.0878906
0.105	-0.0878906
0.11	-0.0878906
0.115	-0.175781
0.12	-0.175781
0.125	-0.175781
0.13	-0.175781
0.135	-0.263672
0.14	-0.263672
0.145	-0.263672
0.15	-0.263672
0.155	-0.263672
0.16	-0.263672
0.165	-0.175781
0.17	-0.175781
0.175	-0.263672
0.18	-0.263672
0.185	-0.263672
0.19	-0.263672
0.195	-0.351562
0.2	-0.351562
0.205	-0.351562
0.21	-0.351562
0.215	-0.439453
0.22	-0.439453
0.225	-0.439453
0.23	-0.439453
0.235	-0.439453
0.24	-0.439453
0.245	-0.439453
0.25	-0.527344
0.255	-0.527344
0.26	-0.615234
0.265	-0.615234
0.27	-0.703125
0.275	-0.703125
0.28	-0.791016
0.285	-0.791016
0.29	-0.878906
0.295	-0.878906
0.3	-0.878906
0.305	-0.966797
0.31	-0.966797
0.315	-1.05469
0.32	-1.05469
0.325	-1.14258
0.33	-1.31836
0.335	-1.31836
0.34	-1.40625
0.345	-1.49414
0.35	-1.49414
0.355	-1.58203
0.36	-1.75781
0.365	-1.75781
0.37	-1.75781
0.375	-2.02148
0.38	-2.02148
0.385	-2.28516
0.39	-2.37305
0.395	-2.54883
0.4	-2.54883
0.405	-2.63672
0.41	-2.8125
0.415	-2.90039
0.42	-3.16406
0.425	-3.16406
0.43	-3.25195
0.435	-3.42773
0.44	-3.51563
0.445	-3.69141
0.45	-3.7793
0.455	-3.86719
0.46	-3.95508
0.465	-4.04297
0.47	-4.13086
0.475	-4.21875
0.48	-4.30664
0.485	-4.39453
0.49	-4.6582
0.495	-4.74609
0.5	-4.83398
0.505	-4.92188
0.51	-5.00977
0.515	-5.09766
0.52	-5.36133
0.525	-5.44922
0.53	-5.53711
0.535	-5.71289
0.54	-5.80078
0.545	-5.97656
0.55	-6.06445
0.555	-6.15234
0.56	-6.32812
0.565	-6.41602
0.57	-6.41602
0.575	-6.50391
0.58	-6.67969
0.585	-6.76758
0.59	-6.94336
0.595	-7.03125
0.6	-7.20703
0.605	-7.38281
0.61	-7.38281
0.615	-7.4707
0.62	-7.73437
0.625	-7.82227
0.63	-7.91016
0.635	-8.17383
0.64	-8.26172
0.645	-8.4375
0.65	-8.52539
0.655	-8.61328
0.66	-8.78906
0.665	-8.96484
0.67	-9.05273
0.675	-9.22852
0.68	-9.31641
0.685	-9.49219
0.69	-9.58008
0.695	-9.66797
0.7	-9.75586
0.705	-9.84375
0.71	-9.93164
0.715	-10.1074
0.72	-10.1953
0.725	-10.2832
0.73	-10.5469
0.735	-10.6348
0.74	-10.7227
0.745	-10.8105
0.75	-10.8984
0.755	-10.9863
0.76	-11.1621
0.765	-11.25
0.77	-11.3379
0.775	-11.5137
0.78	-11.6016
0.785	-11.6895
0.79	-11.8652
0.795	-11.9531
0.8	-11.9531
0.805	-12.2168
0.81	-12.3047
0.815	-12.4805
0.82	-12.5684
0.825	-12.6562
0.83	-12.832
0.835	-12.9199
0.84	-13.0078
0.845	-13.1836
0.85	-13.2715
0.855	-13.3594
0.86	-13.623
0.865	-13.7109
0.87	-13.7988
0.875	-13.9746
0.88	-14.0625
0.885	-14.1504
0.89	-14.3262
0.895	-14.4141
0.9	-14.5898
0.905	-14.6777
0.91	-14.6777
0.915	-14.8535
0.92	-14.9414
0.925	-15.0293
0.93	-15.1172
0.935	-15.2051
0.94	-15.293
0.945	-15.4687
0.95	-15.4687
0.955	-15.5566
0.96	-15.7324
0.965	-15.8203
0.97	-15.9961
0.975	-16.084
0.98	-16.084
0.985	-16.2598
0.99	-16.3477
0.995	-16.3477
1	-16.5234
1.005	-16.5234
1.01	-16.6992
1.015	-16.7871
1.02	-16.7871
1.025	-16.9629
1.03	-17.0508
1.035	-17.1387
1.04	-17.2266
1.045	-17.3145
1.05	-17.3145
1.055	-17.4023
1.06	-17.4023
1.065	-17.4902
1.07	-17.5781
1.075	-17.666
1.08	-17.666
1.085	-17.8418
1.09	-17.8418
1.095	-17.9297
1.1	-17.9297
1.105	-17.9297
1.11	-18.0176
1.115	-18.1055
1.12	-18.1055
1.125	-18.1934
1.13	-18.1934
1.135	-18.2813
1.14	-18.2813
1.145	-18.2813
1.15	-18.2813
1.155	-18.3691
1.16	-18.3691
1.165	-18.3691
1.17	-18.3691
1.175	-18.3691
1.18	-18.3691
1.185	-18.3691
1.19	-18.3691
1.195	-18.3691
1.2	-18.3691
1.205	-18.3691
1.21	-18.3691
1.215	-18.3691
1.22	-18.2813
1.225	-18.2813
1.23	-18.2813
1.235	-18.2813
1.24	-18.1934
1.245	-18.1934
1.25	-18.1934
1.255	-18.1055
1.26	-18.1055
1.265	-18.0176
1.27	-18.0176
1.275	-17.9297
1.28	-17.9297
1.285	-17.8418
1.29	-17.8418
1.295	-17.7539
1.3	-17.7539
1.305	-17.666
1.31	-17.5781
1.315	-17.4902
1.32	-17.4023
1.325	-17.3145
1.33	-17.1387
1.335	-17.1387
1.34	-17.0508
1.345	-16.7871
1.35	-16.6992
1.355	-16.6113
1.36	-16.1719
1.365	-16.084
1.37	-15.9961
1.375	-15.6445
1.38	-15.5566
1.385	-15.4687
1.39	-15.1172
1.395	-14.9414
1.4	-14.7656
1.405	-14.5898
1.41	-14.502
1.415	-14.0625
1.42	-13.9746
1.425	-13.8867
1.43	-13.5352
1.435	-13.4473
1.44	-13.2715
1.445	-12.832
1.45	-12.7441
1.455	-12.5684
1.46	-12.1289
1.465	-12.041
1.47	-11.8652
1.475	-11.6016
1.48	-11.4258
1.485	-11.25
1.49	-10.9863
1.495	-10.8105
1.5	-10.3711
1.505	-10.1953
1.51	-10.1074
1.515	-9.49219
1.52	-9.31641
1.525	-8.96484
1.53	-8.78906
1.535	-8.61328
1.54	-8.34961
1.545	-8.26172
1.55	-8.08594
1.555	-7.73437
1.56	-7.55859
1.565	-7.38281
1.57	-7.03125
1.575	-6.94336
1.58	-6.76758
1.585	-6.5918
1.59	-6.41602
1.595	-6.32812
1.6	-5.97656
1.605	-5.88867
1.61	-5.53711
1.615	-5.44922
1.62	-5.27344
1.625	-4.92188
1.63	-4.83398
1.635	-4.74609
1.64	-4.57031
1.645	-4.39453
1.65	-4.30664
1.655	-4.13086
1.66	-4.04297
1.665	-3.7793
1.67	-3.69141
1.675	-3.60352
1.68	-3.42773
1.685	-3.33984
1.69	-3.16406
1.695	-2.98828
1.7	-2.90039
1.705	-2.8125
1.71	-2.63672
1.715	-2.54883
1.72	-2.46094
1.725	-2.28516
1.73	-2.19727
1.735	-1.93359
1.74	-1.93359
1.745	-1.75781
1.75	-1.58203
1.755	-1.58203
1.76	-1.49414
1.765	-1.31836
1.77	-1.23047
1.775	-1.14258
1.78	-0.966797
1.785	-0.878906
1.79	-0.878906
1.795	-0.703125
1.8	-0.615234
1.805	-0.527344
1.81	-0.351562
1.815	-0.263672
1.82	0
1.825	0.0878906
1.83	0.0878906
1.835	0.439453
1.84	0.527344
1.845	0.615234
1.85	0.878906
1.855	0.966797
1.86	1.05469
1.865	1.31836
1.87	1.40625
1.875	1.49414
1.88	1.75781
1.885	1.8457
1.89	2.02148
1.895	2.10938
1.9	2.10938
1.905	2.28516
1.91	2.37305
1.915	2.46094
1.92	2.63672
1.925	2.72461
1.93	2.8125
1.935	3.07617
1.94	3.16406
1.945	3.25195
1.95	3.51563
1.955	3.60352
1.96	3.69141
1.965	3.86719
1.97	3.95508
1.975	4.13086
1.98	4.21875
1.985	4.21875
1.99	4.39453
1.995	4.48242
2	4.57031
2.005	4.74609
2.01	4.83398
2.015	4.92188
2.02	5.09766
2.025	5.18555
2.03	5.27344
2.035	5.36133
2.04	5.53711
2.045	5.625
2.05	5.71289
2.055	5.80078
2.06	5.97656
2.065	6.06445
2.07	6.15234
2.075	6.32812
2.08	6.32812
2.085	6.41602
2.09	6.5918
2.095	6.67969
2.1	6.76758
2.105	6.94336
2.11	7.03125
2.115	7.03125
2.12	7.20703
2.125	7.29492
2.13	7.29492
2.135	7.4707
2.14	7.4707
2.145	7.55859
2.15	7.64648
2.155	7.73437
2.16	7.91016
2.165	7.99805
2.17	8.08594
2.175	8.17383
2.18	8.17383
2.185	8.26172
2.19	8.34961
2.195	8.34961
2.2	8.52539
2.205	8.52539
2.21	8.61328
2.215	8.70117
2.22	8.70117
2.225	8.78906
2.23	8.87695
2.235	8.96484
2.24	9.05273
2.245	9.14063
2.25	9.14063
2.255	9.22852
2.26	9.22852
2.265	9.31641
2.27	9.31641
2.275	9.4043
2.28	9.4043
2.285	9.58008
2.29	9.58008
2.295	9.58008
2.3	9.66797
2.305	9.75586
2.31	9.84375
2.315	9.84375
2.32	9.93164
2.325	10.0195
2.33	10.1074
2.335	10.1074
2.34	10.1953
2.345	10.1953
2.35	10.1953
2.355	10.2832
2.36	10.3711
2.365	10.3711
2.37	10.459
2.375	10.5469
2.38	10.5469
2.385	10.6348
2.39	10.6348
2.395	10.7227
2.4	10.7227
2.405	10.7227
2.41	10.7227
2.415	10.7227
2.42	10.7227
2.425	10.8105
2.43	10.8105
2.435	10.8105
2.44	10.8984
2.445	10.8984
2.45	10.9863
2.455	10.9863
2.46	11.0742
2.465	11.0742
2.47	11.0742
2.475	11.1621
2.48	11.1621
2.485	11.1621
2.49	11.1621
2.495	11.25
2.5	11.25
2.505	11.25
2.51	11.25
2.515	11.25
2.52	11.3379
2.525	11.3379
2.53	11.4258
2.535	11.4258
2.54	11.4258
2.545	11.4258
2.55	11.4258
2.555	11.4258
2.56	11.4258
2.565	11.4258
2.57	11.4258
2.575	11.5137
2.58	11.5137
2.585	11.5137
2.59	11.5137
2.595	11.6016
2.6	11.6016
2.605	11.6016
2.61	11.6016
2.615	11.6016
2.62	11.6016
2.625	11.6016
2.63	11.6016
2.635	11.6016
2.64	11.6016
2.645	11.6016
2.65	11.6016
2.655	11.6016
2.66	11.6016
2.665	11.6016
2.67	11.6016
2.675	11.6895
2.68	11.6895
2.685	11.6895
2.69	11.6895
2.695	11.6895
2.7	11.6895
2.705	11.6895
2.71	11.6895
2.715	11.6895
2.72	11.6895
2.725	11.6895
2.73	11.6895
2.735	11.6895
2.74	11.6016
2.745	11.6895
2.75	11.6016
2.755	11.6016
2.76	11.6895
2.765	11.6895
2.77	11.6895
2.775	11.6895
2.78	11.6895
2.785	11.6016
2.79	11.6016
2.795	11.6895
2.8	11.6016
2.805	11.6016
2.81	11.6016
2.815	11.6016
2.82	11.6016
2.825	11.6016
2.83	11.6016
2.835	11.6016
2.84	11.6016
2.845	11.6016
2.85	11.6016
2.855	11.5137
2.86	11.5137
2.865	11.5137
2.87	11.5137
2.875	11.5137
2.88	11.5137
2.885	11.5137
2.89	11.4258
2.895	11.4258
2.9	11.4258
2.905	11.4258
2.91	11.4258
2.915	11.4258
2.92	11.4258
2.925	11.4258
2.93	11.4258
2.935	11.4258
2.94	11.4258
2.945	11.4258
2.95	11.3379
2.955	11.3379
2.96	11.3379
2.965	11.3379
2.97	11.25
2.975	11.25
2.98	11.25
2.985	11.25
2.99	11.25
2.995	11.25
3	11.25
3.005	11.1621
3.01	11.1621
3.015	11.1621
3.02	11.1621
3.025	11.1621
3.03	11.1621
3.035	11.1621
3.04	11.0742
3.045	11.0742
3.05	11.0742
3.055	11.0742
3.06	10.9863
3.065	10.9863
3.07	10.9863
3.075	10.9863
3.08	10.9863
3.085	10.8984
3.09	10.9863
3.095	10.9863
3.1	10.8984
3.105	10.8984
3.11	10.8984
3.115	10.8984
3.12	10.8984
3.125	10.8984
3.13	10.8105
3.135	10.8105
3.14	10.8105
3.145	10.8105
3.15	10.8105
3.155	10.8105
3.16	10.7227
3.165	10.8105
3.17	10.7227
3.175	10.7227
3.18	10.7227
3.185	10.7227
3.19	10.7227
3.195	10.7227
3.2	10.6348
3.205	10.6348
3.21	10.6348
3.215	10.6348
3.22	10.6348
3.225	10.6348
3.23	10.5469
3.235	10.5469
3.24	10.6348
3.245	10.5469
3.25	10.5469
3.255	10.5469
3.26	10.5469
3.265	10.5469
3.27	10.5469
3.275	10.5469
3.28	10.5469
3.285	10.459
3.29	10.459
3.295	10.459
3.3	10.3711
3.305	10.3711
3.31	10.3711
3.315	10.3711
3.32	10.3711
3.325	10.3711
3.33	10.3711
3.335	10.3711
3.34	10.3711
3.345	10.3711
3.35	10.3711
3.355	10.3711
3.36	10.2832
3.365	10.2832
3.37	10.2832
3.375	10.1953
3.38	10.1953
3.385	10.1953
3.39	10.1953
3.395	10.1953
3.4	10.1953
3.405	10.1953
3.41	10.1074
3.415	10.1074
3.42	10.1074
3.425	10.1074
3.43	10.1074
3.435	10.1074
3.44	10.0195
3.445	10.0195
3.45	10.0195
3.455	10.0195
3.46	10.0195
3.465	9.93164
3.47	9.93164
3.475	9.93164
3.48	9.93164
3.485	9.84375
3.49	9.84375
3.495	9.84375
3.5	9.75586
3.505	9.75586
3.51	9.75586
3.515	9.75586
3.52	9.66797
3.525	9.66797
3.53	9.66797
3.535	9.58008
3.54	9.58008
3.545	9.49219
3.55	9.49219
3.555	9.49219
3.56	9.49219
3.565	9.49219
3.57	9.4043
3.575	9.4043
3.58	9.4043
3.585	9.4043
3.59	9.31641
3.595	9.31641
3.6	9.31641
3.605	9.31641
3.61	9.22852
3.615	9.22852
3.62	9.22852
3.625	9.22852
3.63	9.22852
3.635	9.22852
3.64	9.14063
3.645	9.14063
3.65	9.14063
3.655	9.05273
3.66	9.05273
3.665	9.05273
3.67	9.05273
3.675	9.05273
3.68	8.96484
3.685	8.96484
3.69	8.87695
3.695	8.87695
3.7	8.78906
3.705	8.78906
3.71	8.78906
3.715	8.78906
3.72	8.78906
3.725	8.70117
3.73	8.70117
3.735	8.70117
3.74	8.70117
3.745	8.70117
3.75	8.61328
3.755	8.61328
3.76	8.61328
3.765	8.61328
3.77	8.61328
3.775	8.52539
3.78	8.52539
3.785	8.52539
3.79	8.4375
3.795	8.4375
3.8	8.4375
3.805	8.4375
3.81	8.4375
3.815	8.4375
3.82	8.34961
3.825	8.34961
3.83	8.34961
3.835	8.34961
3.84	8.34961
3.845	8.34961
3.85	8.34961
3.855	8.26172
3.86	8.26172
3.865	8.26172
3.87	8.26172
3.875	8.26172
3.88	8.26172
3.885	8.26172
3.89	8.17383
3.895	8.17383
3.9	8.17383
3.905	8.08594
3.91	8.08594
3.915	8.08594
3.92	8.08594
3.925	8.08594
3.93	8.08594
3.935	8.08594
3.94	8.08594
3.945	8.08594
3.95	7.99805
3.955	7.99805
3.96	7.99805
3.965	7.99805
3.97	7.99805
3.975	7.99805
3.98	7.91016
3.985	7.91016
3.99	7.91016
3.995	7.91016
4	7.82227
4.005	7.82227
4.01	7.82227
4.015	7.82227
4.02	7.82227
4.025	7.73437
4.03	7.73437
4.035	7.73437
4.04	7.73437
4.045	7.73437
4.05	7.73437
4.055	7.73437
4.06	7.73437
4.065	7.64648
4.07	7.64648
4.075	7.64648
4.08	7.55859
4.085	7.55859
4.09	7.55859
4.095	7.55859
4.1	7.55859
4.105	7.55859
4.11	7.55859
4.115	7.4707
4.12	7.55859
4.125	7.55859
4.13	7.4707
4.135	7.4707
4.14	7.4707
4.145	7.4707
4.15	7.38281
4.155	7.38281
4.16	7.38281
4.165	7.38281
4.17	7.38281
4.175	7.29492
4.18	7.29492
4.185	7.29492
4.19	7.29492
4.195	7.29492
4.2	7.20703
4.205	7.20703
4.21	7.20703
4.215	7.20703
4.22	7.20703
4.225	7.20703
4.23	7.20703
4.235	7.20703
4.24	7.11914
4.245	7.11914
4.25	7.11914
4.255	7.11914
4.26	7.03125
4.265	7.03125
4.27	7.03125
4.275	7.03125
4.28	7.03125
4.285	7.03125
4.29	7.03125
4.295	7.03125
4.3	7.03125
4.305	6.94336
4.31	6.94336
4.315	6.94336
4.32	6.85547
4.325	6.85547
4.33	6.85547
4.335	6.85547
4.34	6.85547
4.345	6.85547
4.35	6.85547
4.355	6.85547
4.36	6.85547
4.365	6.76758
4.37	6.76758
4.375	6.76758
4.38	6.76758
4.385	6.76758
4.39	6.76758
4.395	6.76758
4.4	6.76758
4.405	6.67969
4.41	6.67969
4.415	6.67969
4.42	6.67969
4.425	6.67969
4.43	6.67969
4.435	6.67969
4.44	6.67969
4.445	6.5918
4.45	6.5918
4.455	6.5918
4.46	6.5918
4.465	6.5918
4.47	6.5918
4.475	6.5918
4.48	6.5918
4.485	6.5918
4.49	6.5918
4.495	6.50391
4.5	6.50391
4.505	6.50391
4.51	6.50391
4.515	6.50391
4.52	6.41602
4.525	6.41602
4.53	6.41602
4.535	6.41602
4.54	6.41602
4.545	6.41602
4.55	6.41602
4.555	6.41602
4.56	6.41602
4.565	6.41602
4.57	6.41602
4.575	6.41602
4.58	6.41602
4.585	6.41602
4.59	6.32812
4.595	6.32812
4.6	6.32812
4.605	6.32812
4.61	6.32812
4.615	6.32812
4.62	6.32812
4.625	6.32812
4.63	6.32812
4.635	6.32812
4.64	6.32812
4.645	6.32812
4.65	6.32812
4.655	6.32812
4.66	6.24023
4.665	6.32812
4.67	6.32812
4.675	6.24023
4.68	6.24023
4.685	6.24023
4.69	6.24023
4.695	6.24023
4.7	6.24023
4.705	6.24023
4.71	6.24023
4.715	6.24023
4.72	6.24023
4.725	6.15234
4.73	6.15234
4.735	6.15234
4.74	6.15234
4.745	6.15234
4.75	6.15234
4.755	6.15234
4.76	6.15234
4.765	6.15234
4.77	6.15234
4.775	6.15234
4.78	6.15234
4.785	6.15234
4.79	6.15234
4.795	6.15234
4.8	6.15234
4.805	6.15234
4.81	6.15234
4.815	6.06445
4.82	6.06445
4.825	6.06445
4.83	6.06445
4.835	6.06445
4.84	6.06445
4.845	6.06445
4.85	6.06445
4.855	6.06445
4.86	6.06445
4.865	6.06445
4.87	6.06445
4.875	6.06445
4.88	6.06445
4.885	6.06445
4.89	6.06445
4.895	6.06445
4.9	6.06445
4.905	6.06445
4.91	6.06445
4.915	6.06445
4.92	6.06445
4.925	5.97656
4.93	5.97656
4.935	6.06445
4.94	5.97656
4.945	5.97656
4.95	5.97656
4.955	6.06445
4.96	5.97656
4.965	5.97656
4.97	5.97656
4.975	5.97656
4.98	5.97656
4.985	5.97656
4.99	5.97656
4.995	5.97656
5	5.97656
5.005	5.97656
5.01	5.97656
5.015	5.88867
5.02	5.88867
5.025	5.88867
5.03	5.88867
5.035	5.88867
5.04	5.88867
5.045	5.88867
5.05	5.88867
5.055	5.88867
5.06	5.88867
5.065	5.88867
5.07	5.88867
5.075	5.88867
5.08	5.88867
5.085	5.88867
5.09	5.88867
5.095	5.88867
5.1	5.88867
5.105	5.88867
5.11	5.88867
5.115	5.88867
5.12	5.88867
5.125	5.88867
5.13	5.88867
5.135	5.88867
5.14	5.80078
5.145	5.88867
5.15	5.88867
5.155	5.80078
5.16	5.80078
5.165	5.80078
5.17	5.80078
5.175	5.80078
5.18	5.80078
5.185	5.80078
5.19	5.80078
5.195	5.80078
5.2	5.80078
5.205	5.80078
5.21	5.71289
5.215	5.80078
5.22	5.80078
5.225	5.71289
5.23	5.71289
5.235	5.71289
5.24	5.625
5.245	5.71289
5.25	5.625
5.255	5.44922
5.26	5.625
5.265	5.53711
5.27	5.44922
5.275	5.44922
5.28	5.44922
5.285	5.44922
5.29	5.36133
5.295	5.36133
5.3	5.27344
5.305	5.18555
5.31	5.18555
5.315	5.09766
5.32	5.09766
5.325	5.09766
5.33	5.09766
5.335	5.09766
5.34	5.09766
5.345	5.09766
5.35	5.00977
5.355	5.00977
5.36	5.00977
5.365	4.92188
5.37	4.92188
5.375	4.92188
5.38	4.83398
5.385	4.83398
5.39	4.83398
5.395	4.83398
5.4	4.83398
5.405	4.83398
5.41	4.83398
5.415	4.92188
5.42	4.92188
5.425	4.92188
5.43	4.92188
5.435	4.92188
5.44	4.92188
5.445	4.92188
5.45	4.92188
5.455	4.92188
5.46	4.83398
5.465	4.92188
5.47	4.92188
5.475	4.92188
5.48	5.00977
5.485	5.00977
5.49	5.09766
5.495	5.00977
5.5	5.09766
5.505	5.09766
5.51	5.00977
5.515	5.00977
5.52	5.00977
5.525	5.00977
5.53	5.00977
5.535	5.00977
5.54	5.00977
5.545	5.09766
5.55	5.09766
5.555	5.09766
5.56	5.09766
5.565	5.09766
5.57	5.09766
5.575	5.09766
5.58	5.09766
5.585	5.09766
5.59	5.09766
5.595	5.00977
5.6	5.00977
5.605	5.00977
5.61	5.00977
5.615	5.00977
5.62	5.00977
5.625	5.09766
5.63	5.00977
5.635	5.00977
5.64	5.00977
5.645	4.92188
5.65	4.92188
5.655	4.92188
5.66	4.83398
5.665	4.83398
5.67	4.83398
5.675	4.83398
5.68	4.83398
5.685	4.83398
5.69	4.74609
5.695	4.83398
5.7	4.74609
5.705	4.6582
5.71	4.6582
5.715	4.57031
5.72	4.57031
5.725	4.48242
5.73	4.48242
5.735	4.48242
5.74	4.48242
5.745	4.39453
5.75	4.39453
5.755	4.39453
5.76	4.39453
5.765	4.30664
5.77	4.30664
5.775	4.21875
5.78	4.21875
5.785	4.13086
5.79	4.13086
5.795	4.04297
5.8	4.04297
5.805	4.04297
5.81	4.04297
5.815	4.04297
5.82	4.04297
5.825	3.95508
5.83	3.95508
5.835	3.95508
5.84	3.86719
5.845	3.86719
5.85	3.86719
5.855	3.7793
5.86	3.7793
5.865	3.7793
5.87	3.69141
5.875	3.69141
5.88	3.69141
5.885	3.69141
5.89	3.69141
5.895	3.69141
5.9	3.69141
5.905	3.69141
5.91	3.69141
5.915	3.69141
5.92	3.69141
5.925	3.69141
5.93	3.60352
5.935	3.60352
5.94	3.69141
5.945	3.69141
5.95	3.69141
5.955	3.69141
5.96	3.69141
5.965	3.69141
5.97	3.7793
5.975	3.7793
5.98	3.7793
5.985	3.86719
5.99	3.86719
5.995	3.86719
6	3.86719
6.005	3.86719
6.01	3.86719
6.015	3.95508
6.02	4.04297
6.025	4.04297
6.03	4.04297
6.035	4.13086
6.04	4.13086
6.045	4.21875
6.05	4.21875
6.055	4.39453
6.06	4.48242
6.065	4.57031
6.07	4.57031
6.075	4.57031
6.08	4.74609
6.085	4.74609
6.09	4.83398
6.095	4.83398
6.1	4.92188
6.105	5.00977
6.11	5.00977
6.115	5.09766
6.12	5.09766
6.125	5.27344
6.13	5.27344
6.135	5.36133
6.14	5.44922
6.145	5.53711
6.15	5.53711
6.155	5.625
6.16	5.71289
6.165	5.80078
6.17	5.88867
6.175	5.88867
6.18	5.97656
6.185	6.15234
6.19	6.24023
6.195	6.24023
6.2	6.41602
6.205	6.50391
6.21	6.50391
6.215	6.67969
6.22	6.67969
6.225	6.76758
6.23	6.76758
6.235	6.85547
6.24	6.85547
6.245	7.03125
6.25	7.03125
6.255	7.03125
6.26	7.11914
6.265	7.11914
6.27	7.20703
6.275	7.20703
6.28	7.20703
6.285	7.29492
6.29	7.38281
6.295	7.38281
6.3	7.38281
6.305	7.4707
6.31	7.55859
6.315	7.55859
6.32	7.55859
6.325	7.64648
6.33	7.64648
6.335	7.64648
6.34	7.64648
6.345	7.73437
6.35	7.73437
6.355	7.73437
6.36	7.73437
6.365	7.73437
6.37	7.73437
6.375	7.82227
6.38	7.82227
6.385	7.82227
6.39	7.82227
6.395	7.82227
6.4	7.82227
6.405	7.82227
6.41	7.82227
6.415	7.82227
6.42	7.91016
6.425	7.91016
6.43	7.91016
6.435	7.91016
6.44	7.91016
6.445	7.91016
6.45	7.91016
6.455	7.91016
6.46	7.91016
6.465	7.91016
6.47	7.91016
6.475	7.91016
6.48	7.82227
6.485	7.82227
6.49	7.82227
6.495	7.82227
6.5	7.82227
6.505	7.82227
6.51	7.82227
6.515	7.82227
6.52	7.82227
6.525	7.82227
6.53	7.82227
6.535	7.82227
6.54	7.73437
6.545	7.73437
6.55	7.73437
6.555	7.73437
6.56	7.73437
6.565	7.73437
6.57	7.73437
6.575	7.64648
6.58	7.64648
6.585	7.64648
6.59	7.64648
6.595	7.64648
6.6	7.64648
6.605	7.64648
6.61	7.64648
6.615	7.64648
6.62	7.64648
6.625	7.55859
6.63	7.55859
6.635	7.55859
6.64	7.55859
6.645	7.55859
6.65	7.55859
6.655	7.55859
6.66	7.55859
6.665	7.55859
6.67	7.4707
6.675	7.55859
6.68	7.4707
6.685	7.4707
6.69	7.4707
6.695	7.4707
6.7	7.4707
6.705	7.4707
6.71	7.4707
6.715	7.4707
6.72	7.4707
6.725	7.4707
6.73	7.4707
6.735	7.4707
6.74	7.4707
6.745	7.4707
6.75	7.4707
6.755	7.4707
6.76	7.4707
6.765	7.4707
6.77	7.4707
6.775	7.4707
6.78	7.4707
6.785	7.55859
6.79	7.55859
6.795	7.4707
6.8	7.55859
6.805	7.55859
6.81	7.55859
6.815	7.55859
6.82	7.55859
6.825	7.55859
6.83	7.55859
6.835	7.55859
6.84	7.55859
6.845	7.55859
6.85	7.55859
6.855	7.55859
6.86	7.55859
6.865	7.55859
6.87	7.55859
6.875	7.55859
6.88	7.55859
6.885	7.64648
6.89	7.55859
6.895	7.64648
6.9	7.64648
6.905	7.64648
6.91	7.64648
6.915	7.64648
6.92	7.64648
6.925	7.64648
6.93	7.64648
6.935	7.64648
6.94	7.64648
6.945	7.64648
6.95	7.64648
6.955	7.64648
6.96	7.64648
6.965	7.64648
6.97	7.64648
6.975	7.64648
6.98	7.64648
6.985	7.64648
6.99	7.73437
6.995	7.73437
7	7.73437
7.005	7.73437
7.01	7.73437
7.015	7.73437
7.02	7.73437
7.025	7.73437
7.03	7.73437
7.035	7.73437
7.04	7.73437
7.045	7.73437
7.05	7.73437
7.055	7.73437
7.06	7.73437
7.065	7.73437
7.07	7.73437
7.075	7.73437
7.08	7.73437
7.085	7.73437
7.09	7.64648
7.095	7.64648
7.1	7.64648
7.105	7.64648
7.11	7.64648
7.115	7.64648
7.12	7.64648
7.125	7.64648
7.13	7.64648
7.135	7.64648
7.14	7.64648
7.145	7.64648
7.15	7.64648
7.155	7.55859
7.16	7.55859
7.165	7.55859
7.17	7.55859
7.175	7.55859
7.18	7.55859
7.185	7.55859
7.19	7.55859
7.195	7.55859
7.2	7.4707
7.205	7.55859
7.21	7.4707
7.215	7.4707
7.22	7.4707
7.225	7.4707
7.23	7.4707
7.235	7.4707
7.24	7.4707
7.245	7.4707
7.25	7.4707
7.255	7.38281
7.26	7.38281
7.265	7.38281
7.27	7.38281
7.275	7.38281
7.28	7.38281
7.285	7.38281
7.29	7.38281
7.295	7.38281
7.3	7.38281
7.305	7.29492
7.31	7.29492
7.315	7.29492
7.32	7.29492
7.325	7.29492
7.33	7.29492
7.335	7.29492
7.34	7.29492
7.345	7.20703
7.35	7.20703
7.355	7.20703
7.36	7.20703
7.365	7.20703
7.37	7.20703
7.375	7.20703
7.38	7.20703
7.385	7.20703
7.39	7.20703
7.395	7.20703
7.4	7.20703
7.405	7.11914
7.41	7.11914
7.415	7.11914
7.42	7.11914
7.425	7.11914
7.43	7.11914
7.435	7.11914
7.44	7.11914
7.445	7.11914
7.45	7.03125
7.455	7.03125
7.46	7.03125
7.465	7.03125
7.47	7.03125
7.475	7.03125
7.48	7.03125
7.485	7.03125
7.49	7.03125
7.495	7.03125
7.5	7.03125
7.505	7.03125
7.51	7.03125
7.515	6.94336
7.52	7.03125
7.525	6.94336
7.53	6.94336
7.535	6.94336
7.54	6.94336
7.545	6.94336
7.55	6.94336
7.555	6.94336
7.56	6.94336
7.565	6.94336
7.57	6.94336
7.575	6.94336
7.58	6.94336
7.585	6.94336
7.59	6.94336
7.595	6.94336
7.6	6.94336
7.605	6.94336
7.61	6.94336
7.615	6.94336
7.62	6.94336
7.625	6.94336
7.63	6.94336
7.635	6.94336
7.64	6.94336
7.645	6.94336
7.65	6.94336
7.655	6.94336
7.66	6.94336
7.665	6.94336
7.67	6.94336
7.675	6.94336
7.68	6.94336
7.685	6.94336
7.69	6.94336
7.695	6.94336
7.7	6.94336
7.705	6.85547
7.71	6.85547
7.715	6.85547
7.72	6.85547
7.725	6.85547
7.73	6.85547
7.735	6.85547
7.74	6.85547
7.745	6.85547
7.75	6.85547
7.755	6.85547
7.76	6.85547
7.765	6.85547
7.77	6.85547
7.775	6.85547
7.78	6.85547
7.785	6.85547
7.79	6.85547
7.795	6.85547
7.8	6.85547
7.805	6.85547
7.81	6.85547
7.815	6.85547
7.82	6.85547
7.825	6.85547
7.83	6.85547
7.835	6.85547
7.84	6.85547
7.845	6.85547
7.85	6.85547
7.855	6.85547
7.86	6.85547
7.865	6.85547
7.87	6.85547
7.875	6.85547
7.88	6.85547
7.885	6.76758
7.89	6.85547
7.895	6.85547
7.9	6.85547
7.905	6.76758
7.91	6.76758
7.915	6.76758
7.92	6.76758
7.925	6.76758
7.93	6.76758
7.935	6.76758
7.94	6.76758
7.945	6.76758
7.95	6.76758
7.955	6.76758
7.96	6.67969
7.965	6.67969
7.97	6.76758
7.975	6.67969
7.98	6.67969
7.985	6.67969
7.99	6.67969
7.995	6.67969
8	6.67969
8.005	6.67969
8.01	6.67969
8.015	6.67969
8.02	6.67969
8.025	6.67969
8.03	6.67969
8.035	6.67969
8.04	6.67969
8.045	6.5918
8.05	6.5918
8.055	6.5918
8.06	6.5918
8.065	6.5918
8.07	6.5918
8.075	6.5918
8.08	6.5918
8.085	6.5918
8.09	6.5918
8.095	6.5918
8.1	6.5918
8.105	6.50391
8.11	6.50391
8.115	6.50391
8.12	6.50391
8.125	6.50391
8.13	6.50391
8.135	6.50391
8.14	6.50391
8.145	6.50391
8.15	6.50391
8.155	6.50391
8.16	6.50391
8.165	6.50391
8.17	6.50391
8.175	6.41602
8.18	6.50391
8.185	6.50391
8.19	6.50391
8.195	6.41602
8.2	6.41602
8.205	6.41602
8.21	6.41602
8.215	6.41602
8.22	6.41602
8.225	6.41602
8.23	6.41602
8.235	6.41602
8.24	6.41602
8.245	6.41602
8.25	6.41602
8.255	6.41602
8.26	6.41602
8.265	6.41602
8.27	6.41602
8.275	6.41602
8.28	6.41602
8.285	6.41602
8.29	6.41602
8.295	6.41602
8.3	6.32812
8.305	6.32812
8.31	6.32812
8.315	6.32812
8.32	6.32812
8.325	6.32812
8.33	6.32812
8.335	6.32812
8.34	6.32812
8.345	6.32812
8.35	6.32812
8.355	6.32812
8.36	6.32812
8.365	6.32812
8.37	6.32812
8.375	6.32812
8.38	6.32812
8.385	6.32812
8.39	6.32812
8.395	6.24023
8.4	6.32812
8.405	6.32812
8.41	6.24023
8.415	6.24023
8.42	6.24023
8.425	6.24023
8.43	6.24023
8.435	6.24023
8.44	6.24023
8.445	6.24023
8.45	6.24023
8.455	6.24023
8.46	6.24023
8.465	6.24023
8.47	6.24023
8.475	6.24023
8.48	6.24023
8.485	6.24023
8.49	6.24023
8.495	6.24023
8.5	6.24023
8.505	6.24023
8.51	6.24023
8.515	6.24023
8.52	6.24023
8.525	6.24023
8.53	6.24023
8.535	6.24023
8.54	6.24023
8.545	6.24023
8.55	6.24023
8.555	6.24023
8.56	6.24023
8.565	6.24023
8.57	6.24023
8.575	6.24023
8.58	6.24023
8.585	6.24023
8.59	6.24023
8.595	6.24023
8.6	6.32812
8.605	6.32812
8.61	6.24023
8.615	6.32812
8.62	6.32812
8.625	6.32812
8.63	6.32812
8.635	6.32812
8.64	6.32812
8.645	6.32812
8.65	6.32812
8.655	6.32812
8.66	6.32812
8.665	6.32812
8.67	6.32812
8.675	6.32812
8.68	6.32812
8.685	6.32812
8.69	6.32812
8.695	6.24023
8.7	6.32812
8.705	6.24023
8.71	6.24023
8.715	6.32812
8.72	6.24023
8.725	6.32812
8.73	6.24023
8.735	6.32812
8.74	6.24023
8.745	6.24023
8.75	6.24023
8.755	6.24023
8.76	6.24023
8.765	6.24023
8.77	6.24023
8.775	6.24023
8.78	6.24023
8.785	6.24023
8.79	6.24023
8.795	6.24023
8.8	6.24023
8.805	6.15234
8.81	6.15234
8.815	6.24023
8.82	6.15234
8.825	6.15234
8.83	6.15234
8.835	6.15234
8.84	6.15234
8.845	6.15234
8.85	6.15234
8.855	6.15234
8.86	6.15234
8.865	6.15234
8.87	6.15234
8.875	6.15234
8.88	6.06445
8.885	6.06445
8.89	6.06445
8.895	6.06445
8.9	6.06445
8.905	6.06445
8.91	6.06445
8.915	6.06445
8.92	6.06445
8.925	6.06445
8.93	6.06445
8.935	6.06445
8.94	6.06445
8.945	6.06445
8.95	6.06445
8.955	5.97656
8.96	5.97656
8.965	5.97656
8.97	5.97656
8.975	5.97656
8.98	5.97656
8.985	5.97656
8.99	5.97656
8.995	5.97656
9	5.97656
9.005	5.97656
9.01	5.97656
9.015	5.97656
9.02	5.97656
9.025	5.97656
9.03	5.97656
9.035	5.97656
9.04	5.97656
9.045	5.97656
9.05	5.97656
9.055	5.97656
9.06	5.97656
9.065	5.97656
9.07	5.97656
9.075	5.97656
9.08	5.97656
9.085	5.97656
9.09	5.97656
9.095	5.97656
9.1	5.97656
9.105	5.97656
9.11	5.97656
9.115	5.97656
9.12	5.97656
9.125	5.97656
9.13	5.97656
9.135	5.97656
9.14	6.06445
9.145	6.06445
9.15	6.06445
9.155	6.06445
9.16	6.06445
9.165	6.06445
9.17	6.06445
9.175	6.06445
9.18	6.06445
9.185	6.06445
9.19	6.06445
9.195	6.06445
9.2	6.06445
9.205	6.06445
9.21	6.06445
9.215	6.06445
9.22	6.06445
9.225	6.06445
9.23	6.06445
9.235	6.06445
9.24	6.06445
9.245	6.15234
9.25	6.06445
9.255	6.15234
9.26	6.15234
9.265	6.15234
9.27	6.15234
9.275	6.15234
9.28	6.15234
9.285	6.15234
9.29	6.15234
9.295	6.15234
9.3	6.15234
9.305	6.15234
9.31	6.15234
9.315	6.15234
9.32	6.15234
9.325	6.15234
9.33	6.15234
9.335	6.15234
9.34	6.15234
9.345	6.15234
9.35	6.24023
9.355	6.24023
9.36	6.24023
9.365	6.24023
9.37	6.24023
9.375	6.24023
9.38	6.24023
9.385	6.24023
9.39	6.24023
9.395	6.24023
9.4	6.24023
9.405	6.24023
9.41	6.24023
9.415	6.24023
9.42	6.24023
9.425	6.24023
9.43	6.24023
9.435	6.24023
9.44	6.24023
9.445	6.32812
9.45	6.32812
9.455	6.32812
9.46	6.32812
9.465	6.32812
9.47	6.32812
9.475	6.32812
9.48	6.32812
9.485	6.32812
9.49	6.32812
9.495	6.32812
9.5	6.32812
9.505	6.32812
9.51	6.32812
9.515	6.32812
9.52	6.32812
9.525	6.32812
9.53	6.32812
9.535	6.32812
9.54	6.32812
9.545	6.32812
9.55	6.32812
9.555	6.32812
9.56	6.32812
9.565	6.32812
9.57	6.32812
9.575	6.32812
9.58	6.32812
9.585	6.32812
9.59	6.32812
9.595	6.32812
9.6	6.32812
9.605	6.32812
9.61	6.41602
9.615	6.41602
9.62	6.41602
9.625	6.41602
9.63	6.41602
9.635	6.41602
9.64	6.41602
9.645	6.41602
9.65	6.41602
9.655	6.41602
9.66	6.41602
9.665	6.41602
9.67	6.41602
9.675	6.41602
9.68	6.41602
9.685	6.41602
9.69	6.41602
9.695	6.41602
9.7	6.41602
9.705	6.41602
9.71	6.41602
9.715	6.41602
9.72	6.50391
9.725	6.50391
9.73	6.50391
9.735	6.50391
9.74	6.50391
9.745	6.50391
9.75	6.50391
9.755	6.50391
9.76	6.50391
9.765	6.50391
9.77	6.50391
9.775	6.50391
9.78	6.50391
9.785	6.50391
9.79	6.50391
9.795	6.50391
9.8	6.50391
9.805	6.50391
9.81	6.50391
9.815	6.50391
9.82	6.50391
9.825	6.50391
9.83	6.5918
9.835	6.5918
9.84	6.5918
9.845	6.5918
9.85	6.5918
9.855	6.5918
9.86	6.5918
9.865	6.5918
9.87	6.5918
9.875	6.5918
9.88	6.5918
9.885	6.5918
9.89	6.5918
9.895	6.5918
9.9	6.5918
9.905	6.5918
9.91	6.5918
9.915	6.5918
9.92	6.5918
9.925	6.5918
9.93	6.5918
9.935	6.5918
9.94	6.5918
9.945	6.5918
9.95	6.5918
9.955	6.5918
9.96	6.5918
9.965	6.5918
9.97	6.5918
9.975	6.5918
9.98	6.5918
9.985	6.5918
9.99	6.5918
9.995	6.67969
10	6.67969
10.005	6.5918
10.01	6.67969
10.015	6.67969
10.02	6.67969
10.025	6.67969
10.03	6.67969
10.035	6.67969
10.04	6.67969
10.045	6.76758
10.05	6.67969
10.055	6.67969
10.06	6.76758
10.065	6.76758
10.07	6.67969
10.075	6.67969
10.08	6.67969
10.085	6.67969
10.09	6.67969
10.095	6.67969
10.1	6.76758
10.105	6.76758
10.11	6.76758
10.115	6.76758
10.12	6.76758
10.125	6.76758
10.13	6.76758
10.135	6.76758
10.14	6.76758
10.145	6.76758
10.15	6.76758
10.155	6.76758
10.16	6.76758
10.165	6.76758
10.17	6.76758
10.175	6.76758
10.18	6.85547
10.185	6.85547
10.19	6.85547
10.195	6.85547
10.2	6.85547
10.205	6.85547
10.21	6.85547
10.215	6.85547
10.22	6.85547
10.225	6.85547
10.23	6.85547
10.235	6.94336
10.24	6.94336
10.245	6.94336
10.25	7.03125
10.255	7.03125
10.26	7.03125
10.265	7.11914
10.27	7.11914
10.275	7.11914
10.28	7.20703
10.285	7.20703
10.29	7.29492
10.295	7.38281
10.3	7.38281
10.305	7.4707
10.31	7.55859
10.315	7.64648
10.32	7.64648
10.325	7.82227
10.33	7.91016
10.335	7.91016
10.34	8.17383
10.345	8.26172
10.35	8.34961
10.355	8.61328
10.36	8.70117
10.365	8.78906
10.37	9.14063
10.375	9.31641
10.38	9.66797
10.385	9.75586
10.39	9.93164
10.395	10.3711
10.4	10.5469
10.405	10.7227
10.41	11.0742
10.415	11.25
10.42	11.4258
10.425	11.7773
10.43	11.9531
10.435	12.2168
10.44	12.5684
10.445	12.832
10.45	13.0078
10.455	13.8867
10.46	14.0625
10.465	14.7656
10.47	15.0293
10.475	15.2051
10.48	15.7324
10.485	15.9082
10.49	16.1719
10.495	16.6992
10.5	16.9629
10.505	17.1387
10.51	17.666
10.515	17.8418
10.52	18.1055
10.525	18.5449
10.53	18.8086
10.535	18.9844
10.54	19.6875
10.545	19.8633
10.55	20.0391
10.555	20.4785
10.56	20.6543
10.565	20.918
10.57	21.4453
10.575	21.6211
10.58	21.7969
10.585	22.5
10.59	22.5879
10.595	22.7637
10.6	23.1152
10.605	23.291
10.61	23.3789
10.615	23.7305
10.62	23.7305
10.625	23.9063
10.63	24.082
10.635	24.082
10.64	24.2578
10.645	24.3457
10.65	24.3457
10.655	24.4336
10.66	24.4336
10.665	24.4336
10.67	24.3457
10.675	24.4336
10.68	24.2578
10.685	24.2578
10.69	24.1699
10.695	23.9941
10.7	23.9063
10.705	23.8184
10.71	23.4668
10.715	23.3789
10.72	23.2031
10.725	22.8516
10.73	22.6758
10.735	22.6758
10.74	22.1484
10.745	21.9727
10.75	21.3574
10.755	21.0937
10.76	20.918
10.765	20.5664
10.77	20.3906
10.775	20.2148
10.78	19.5996
10.785	19.3359
10.79	19.248
10.795	18.6328
10.8	18.3691
10.805	18.2813
10.81	17.5781
10.815	17.4023
10.82	16.3477
10.825	16.084
10.83	15.4687
10.835	15.293
10.84	15.1172
10.845	14.6777
10.85	14.502
10.855	14.3262
10.86	13.623
10.865	13.4473
10.87	12.7441
10.875	12.4805
10.88	11.9531
10.885	11.7773
10.89	11.6016
10.895	11.1621
10.9	10.9863
10.905	10.8105
10.91	10.5469
10.915	10.459
10.92	10.2832
10.925	9.93164
10.93	9.75586
10.935	9.58008
10.94	9.14063
10.945	9.05273
10.95	8.87695
10.955	8.61328
10.96	8.52539
10.965	8.4375
10.97	8.17383
10.975	8.08594
10.98	7.91016
10.985	7.55859
10.99	7.4707
10.995	7.11914
11	7.03125
11.005	6.94336
11.01	6.67969
11.015	6.5918
11.02	6.50391
11.025	6.24023
11.03	6.15234
11.035	6.06445
11.04	5.80078
11.045	5.71289
11.05	5.36133
11.055	5.27344
11.06	5.18555
11.065	4.83398
11.07	4.74609
11.075	4.6582
11.08	4.48242
11.085	4.39453
11.09	4.30664
11.095	4.13086
11.1	4.04297
11.105	3.95508
11.11	3.7793
11.115	3.69141
11.12	3.69141
11.125	3.33984
11.13	3.25195
11.135	3.16406
11.14	2.8125
11.145	2.72461
11.15	2.63672
11.155	2.46094
11.16	2.37305
11.165	2.28516
11.17	2.02148
11.175	1.93359
11.18	1.93359
11.185	1.66992
11.19	1.58203
11.195	1.40625
11.2	1.23047
11.205	1.14258
11.21	1.05469
11.215	0.878906
11.22	0.791016
11.225	0.703125
11.23	0.439453
11.235	0.351562
11.24	0.351562
11.245	0.0878906
11.25	0
11.255	-0.263672
11.26	-0.351562
11.265	-0.439453
11.27	-0.615234
11.275	-0.703125
11.28	-0.791016
11.285	-0.966797
11.29	-1.05469
11.295	-1.14258
11.3	-1.31836
11.305	-1.31836
11.31	-1.40625
11.315	-1.66992
11.32	-1.75781
11.325	-1.75781
11.33	-2.02148
11.335	-2.10938
11.34	-2.10938
11.345	-2.28516
11.35	-2.37305
11.355	-2.46094
11.36	-2.54883
11.365	-2.63672
11.37	-2.63672
11.375	-2.72461
11.38	-2.8125
11.385	-2.8125
11.39	-3.07617
11.395	-3.16406
11.4	-3.25195
11.405	-3.33984
11.41	-3.33984
11.415	-3.51563
11.42	-3.51563
11.425	-3.60352
11.43	-3.69141
11.435	-3.7793
11.44	-3.7793
11.445	-3.86719
11.45	-3.95508
11.455	-3.95508
11.46	-4.04297
11.465	-4.13086
11.47	-4.13086
11.475	-4.21875
11.48	-4.30664
11.485	-4.39453
11.49	-4.39453
11.495	-4.48242
11.5	-4.48242
11.505	-4.57031
11.51	-4.57031
11.515	-4.6582
11.52	-4.6582
11.525	-4.74609
11.53	-4.83398
11.535	-4.83398
11.54	-4.92188
11.545	-4.92188
11.55	-5.09766
11.555	-5.09766
11.56	-5.09766
11.565	-5.09766
11.57	-5.18555
11.575	-5.18555
11.58	-5.18555
11.585	-5.18555
11.59	-5.18555
11.595	-5.27344
11.6	-5.27344
11.605	-5.27344
11.61	-5.36133
11.615	-5.36133
11.62	-5.44922
11.625	-5.44922
11.63	-5.44922
11.635	-5.44922
11.64	-5.53711
11.645	-5.53711
11.65	-5.53711
11.655	-5.53711
11.66	-5.53711
11.665	-5.625
11.67	-5.625
11.675	-5.625
11.68	-5.71289
11.685	-5.71289
11.69	-5.71289
11.695	-5.71289
11.7	-5.71289
11.705	-5.80078
11.71	-5.80078
11.715	-5.80078
11.72	-5.71289
11.725	-5.71289
11.73	-5.71289
11.735	-5.71289
11.74	-5.71289
11.745	-5.71289
11.75	-5.71289
11.755	-5.71289
11.76	-5.71289
11.765	-5.71289
11.77	-5.71289
11.775	-5.71289
11.78	-5.71289
11.785	-5.71289
11.79	-5.625
11.795	-5.625
11.8	-5.625
11.805	-5.625
11.81	-5.625
11.815	-5.53711
11.82	-5.53711
11.825	-5.53711
11.83	-5.44922
11.835	-5.44922
11.84	-5.44922
11.845	-5.44922
11.85	-5.36133
11.855	-5.36133
11.86	-5.36133
11.865	-5.27344
11.87	-5.27344
11.875	-5.27344
11.88	-5.18555
11.885	-5.09766
11.89	-5.09766
11.895	-5.09766
11.9	-5.09766
11.905	-5.00977
11.91	-4.92188
11.915	-4.92188
11.92	-4.83398
11.925	-4.83398
11.93	-4.74609
11.935	-4.74609
11.94	-4.74609
11.945	-4.6582
11.95	-4.6582
11.955	-4.6582
11.96	-4.6582
11.965	-4.6582
11.97	-4.57031
11.975	-4.57031
11.98	-4.57031
11.985	-4.48242
11.99	-4.48242
11.995	-4.39453
12	-4.39453
12.005	-4.30664
12.01	-4.30664
12.015	-4.21875
12.02	-4.21875
12.025	-4.13086
12.03	-4.13086
12.035	-4.04297
12.04	-4.04297
12.045	-4.04297
12.05	-3.95508
12.055	-3.95508
12.06	-3.86719
12.065	-3.7793
12.07	-3.7793
12.075	-3.69141
12.08	-3.69141
12.085	-3.60352
12.09	-3.60352
12.095	-3.60352
12.1	-3.51563
12.105	-3.51563
12.11	-3.51563
12.115	-3.42773
12.12	-3.42773
12.125	-3.42773
12.13	-3.33984
12.135	-3.25195
12.14	-3.25195
12.145	-3.25195
12.15	-3.16406
12.155	-3.16406
12.16	-3.07617
12.165	-3.07617
12.17	-2.98828
12.175	-2.98828
12.18	-2.98828
12.185	-2.90039
12.19	-2.90039
12.195	-2.8125
12.2	-2.8125
12.205	-2.72461
12.21	-2.63672
12.215	-2.63672
12.22	-2.63672
12.225	-2.46094
12.23	-2.46094
12.235	-2.46094
12.24	-2.37305
12.245	-2.37305
12.25	-2.37305
12.255	-2.28516
12.26	-2.28516
12.265	-2.19727
12.27	-2.10938
12.275	-2.02148
12.28	-1.93359
12.285	-1.93359
12.29	-1.93359
12.295	-1.8457
12.3	-1.8457
12.305	-1.75781
12.31	-1.75781
12.315	-1.75781
12.32	-1.66992
12.325	-1.66992
12.33	-1.58203
12.335	-1.58203
12.34	-1.58203
12.345	-1.58203
12.35	-1.49414
12.355	-1.40625
12.36	-1.23047
12.365	-1.23047
12.37	-1.05469
12.375	-1.05469
12.38	-1.05469
12.385	-0.966797
12.39	-0.966797
12.395	-0.966797
12.4	-0.878906
12.405	-0.878906
12.41	-0.791016
12.415	-0.791016
12.42	-0.615234
12.425	-0.615234
12.43	-0.527344
12.435	-0.527344
12.44	-0.527344
12.445	-0.527344
12.45	-0.439453
12.455	-0.439453
12.46	-0.351562
12.465	-0.351562
12.47	-0.263672
12.475	-0.263672
12.48	-0.263672
12.485	-0.175781
12.49	-0.175781
12.495	-0.0878906
12.5	-0.0878906
12.505	0
12.51	0
12.515	0.0878906
12.52	0.0878906
12.525	0.175781
12.53	0.175781
12.535	0.263672
12.54	0.263672
12.545	0.351562
12.55	0.351562
12.555	0.351562
12.56	0.351562
12.565	0.439453
12.57	0.439453
12.575	0.527344
12.58	0.527344
12.585	0.527344
12.59	0.615234
12.595	0.615234
12.6	0.791016
12.605	0.791016
12.61	0.791016
12.615	0.878906
12.62	0.966797
12.625	0.966797
12.63	0.966797
12.635	1.05469
12.64	1.05469
12.645	1.05469
12.65	1.14258
12.655	1.14258
12.66	1.23047
12.665	1.23047
12.67	1.31836
12.675	1.31836
12.68	1.31836
12.685	1.40625
12.69	1.40625
12.695	1.40625
12.7	1.49414
12.705	1.49414
12.71	1.58203
12.715	1.58203
12.72	1.58203
12.725	1.66992
12.73	1.75781
12.735	1.75781
12.74	1.8457
12.745	1.8457
12.75	1.8457
12.755	1.93359
12.76	1.93359
12.765	1.93359
12.77	2.02148
12.775	2.10938
12.78	2.10938
12.785	2.19727
12.79	2.19727
12.795	2.19727
12.8	2.28516
12.805	2.28516
12.81	2.37305
12.815	2.46094
12.82	2.46094
12.825	2.46094
12.83	2.54883
12.835	2.54883
12.84	2.54883
12.845	2.54883
12.85	2.63672
12.855	2.63672
12.86	2.72461
12.865	2.72461
12.87	2.72461
12.875	2.8125
12.88	2.8125
12.885	2.90039
12.89	2.90039
12.895	2.90039
12.9	2.98828
12.905	2.98828
12.91	2.98828
12.915	3.07617
12.92	3.07617
12.925	3.16406
12.93	3.16406
12.935	3.16406
12.94	3.16406
12.945	3.16406
12.95	3.16406
12.955	3.25195
12.96	3.25195
12.965	3.25195
12.97	3.25195
12.975	3.33984
12.98	3.33984
12.985	3.33984
12.99	3.42773
12.995	3.42773
13	3.51563
13.005	3.51563
13.01	3.60352
13.015	3.60352
13.02	3.60352
13.025	3.60352
13.03	3.69141
13.035	3.69141
13.04	3.69141
13.045	3.69141
13.05	3.7793
13.055	3.7793
13.06	3.86719
13.065	3.86719
13.07	3.86719
13.075	3.95508
13.08	3.95508
13.085	3.95508
13.09	4.04297
13.095	4.04297
13.1	4.04297
13.105	4.04297
13.11	4.04297
13.115	4.04297
13.12	4.13086
13.125	4.13086
13.13	4.13086
13.135	4.21875
13.14	4.21875
13.145	4.21875
13.15	4.21875
13.155	4.30664
13.16	4.30664
13.165	4.30664
13.17	4.30664
13.175	4.30664
13.18	4.30664
13.185	4.30664
13.19	4.39453
13.195	4.39453
13.2	4.39453
13.205	4.39453
13.21	4.39453
13.215	4.39453
13.22	4.39453
13.225	4.48242
13.23	4.48242
13.235	4.48242
13.24	4.48242
13.245	4.57031
13.25	4.57031
13.255	4.57031
13.26	4.57031
13.265	4.57031
13.27	4.6582
13.275	4.6582
13.28	4.6582
13.285	4.6582
13.29	4.6582
13.295	4.6582
13.3	4.6582
13.305	4.6582
13.31	4.74609
13.315	4.74609
13.32	4.74609
13.325	4.74609
13.33	4.74609
13.335	4.83398
13.34	4.83398
13.345	4.83398
13.35	4.83398
13.355	4.83398
13.36	4.83398
13.365	4.83398
13.37	4.92188
13.375	4.92188
13.38	4.92188
13.385	4.92188
13.39	4.92188
13.395	4.92188
13.4	4.92188
13.405	4.92188
13.41	5.00977
13.415	5.00977
13.42	5.00977
13.425	5.09766
13.43	5.09766
13.435	5.09766
13.44	5.09766
13.445	5.09766
13.45	5.09766
13.455	5.09766
13.46	5.09766
13.465	5.09766
13.47	5.09766
13.475	5.09766
13.48	5.09766
13.485	5.09766
13.49	5.18555
13.495	5.18555
13.5	5.18555
13.505	5.18555
13.51	5.18555
13.515	5.27344
13.52	5.27344
13.525	5.27344
13.53	5.27344
13.535	5.27344
13.54	5.27344
13.545	5.27344
13.55	5.27344
13.555	5.27344
13.56	5.27344
13.565	5.27344
13.57	5.27344
13.575	5.27344
13.58	5.36133
13.585	5.36133
13.59	5.36133
13.595	5.36133
13.6	5.36133
13.605	5.36133
13.61	5.36133
13.615	5.44922
13.62	5.44922
13.625	5.44922
13.63	5.44922
13.635	5.44922
13.64	5.44922
13.645	5.44922
13.65	5.44922
13.655	5.44922
13.66	5.44922
13.665	5.44922
13.67	5.44922
13.675	5.44922
13.68	5.44922
13.685	5.44922
13.69	5.44922
13.695	5.44922
13.7	5.44922
13.705	5.44922
13.71	5.44922
13.715	5.44922
13.72	5.44922
13.725	5.44922
13.73	5.44922
13.735	5.44922
13.74	5.44922
13.745	5.44922
13.75	5.44922
13.755	5.44922
13.76	5.44922
13.765	5.44922
13.77	5.44922
13.775	5.44922
13.78	5.53711
13.785	5.53711
13.79	5.53711
13.795	5.53711
13.8	5.53711
13.805	5.53711
13.81	5.53711
13.815	5.53711
13.82	5.53711
13.825	5.53711
13.83	5.53711
13.835	5.53711
13.84	5.53711
13.845	5.53711
13.85	5.53711
13.855	5.53711
13.86	5.53711
13.865	5.53711
13.87	5.53711
13.875	5.53711
13.88	5.53711
13.885	5.53711
13.89	5.53711
13.895	5.53711
13.9	5.53711
13.905	5.53711
13.91	5.53711
13.915	5.53711
13.92	5.53711
13.925	5.53711
13.93	5.53711
13.935	5.53711
13.94	5.53711
13.945	5.53711
13.95	5.53711
13.955	5.53711
13.96	5.53711
13.965	5.53711
13.97	5.53711
13.975	5.53711
13.98	5.53711
13.985	5.53711
13.99	5.53711
13.995	5.53711
14	5.53711
14.005	5.625
14.01	5.625
14.015	5.625
14.02	5.625
14.025	5.53711
14.03	5.53711
14.035	5.53711
14.04	5.53711
14.045	5.53711
14.05	5.53711
14.055	5.53711
14.06	5.53711
14.065	5.625
14.07	5.625
14.075	5.625
14.08	5.625
14.085	5.625
14.09	5.625
14.095	5.625
14.1	5.625
14.105	5.625
14.11	5.625
14.115	5.625
14.12	5.625
14.125	5.625
14.13	5.625
14.135	5.625
14.14	5.625
14.145	5.625
14.15	5.625
14.155	5.625
14.16	5.625
14.165	5.625
14.17	5.625
14.175	5.625
14.18	5.625
14.185	5.625
14.19	5.625
14.195	5.625
14.2	5.625
14.205	5.625
14.21	5.625
14.215	5.625
14.22	5.625
14.225	5.625
14.23	5.625
14.235	5.625
14.24	5.625
14.245	5.625
14.25	5.625
14.255	5.625
14.26	5.625
14.265	5.71289
14.27	5.71289
14.275	5.625
14.28	5.71289
14.285	5.71289
14.29	5.71289
14.295	5.71289
14.3	5.71289
14.305	5.71289
14.31	5.71289
14.315	5.71289
14.32	5.71289
14.325	5.71289
14.33	5.71289
14.335	5.71289
14.34	5.71289
14.345	5.71289
14.35	5.71289
14.355	5.71289
14.36	5.71289
14.365	5.71289
14.37	5.71289
14.375	5.71289
14.38	5.71289
14.385	5.71289
14.39	5.71289
14.395	5.71289
14.4	5.71289
14.405	5.71289
14.41	5.71289
14.415	5.71289
14.42	5.71289
14.425	5.71289
14.43	5.71289
14.435	5.71289
14.44	5.71289
14.445	5.71289
14.45	5.71289
14.455	5.71289
14.46	5.80078
14.465	5.71289
14.47	5.80078
14.475	5.80078
14.48	5.71289
14.485	5.71289
14.49	5.71289
14.495	5.71289
14.5	5.80078
14.505	5.71289
14.51	5.80078
14.515	5.80078
14.52	5.80078
14.525	5.80078
14.53	5.80078
14.535	5.80078
14.54	5.80078
14.545	5.80078
14.55	5.71289
14.555	5.71289
14.56	5.71289
14.565	5.71289
14.57	5.71289
14.575	5.71289
14.58	5.71289
14.585	5.71289
14.59	5.71289
14.595	5.71289
14.6	5.71289
14.605	5.80078
14.61	5.80078
14.615	5.80078
14.62	5.80078
14.625	5.80078
14.63	5.80078
14.635	5.71289
14.64	5.71289
14.645	5.71289
14.65	5.71289
14.655	5.71289
14.66	5.71289
14.665	5.71289
14.67	5.71289
14.675	5.71289
14.68	5.71289
14.685	5.71289
14.69	5.71289
14.695	5.71289
14.7	5.71289
14.705	5.71289
14.71	5.71289
14.715	5.71289
14.72	5.71289
14.725	5.71289
14.73	5.71289
14.735	5.71289
14.74	5.71289
14.745	5.71289
14.75	5.71289
14.755	5.71289
14.76	5.71289
14.765	5.71289
14.77	5.71289
14.775	5.80078
14.78	5.80078
14.785	5.80078
14.79	5.80078
14.795	5.80078
14.8	5.71289
14.805	5.80078
14.81	5.71289
14.815	5.71289
14.82	5.71289
14.825	5.71289
14.83	5.71289
14.835	5.71289
14.84	5.71289
14.845	5.71289
14.85	5.71289
14.855	5.71289
14.86	5.71289
14.865	5.71289
14.87	5.71289
14.875	5.80078
14.88	5.71289
14.885	5.71289
14.89	5.80078
14.895	5.71289
14.9	5.71289
14.905	5.71289
14.91	5.71289
14.915	5.71289
14.92	5.71289
14.925	5.71289
14.93	5.71289
14.935	5.71289
14.94	5.71289
14.945	5.71289
14.95	5.71289
14.955	5.71289
14.96	5.71289
14.965	5.71289
14.97	5.71289
14.975	5.71289
14.98	5.71289
14.985	5.71289
14.99	5.71289
14.995	5.71289
15	5.625
15.005	5.625
15.01	5.625
15.015	5.53711
15.02	5.53711
15.025	5.53711
15.03	5.53711
15.035	5.53711
15.04	5.53711
15.045	5.53711
15.05	5.53711
15.055	5.53711
15.06	5.53711
15.065	5.53711
15.07	5.53711
15.075	5.53711
15.08	5.53711
15.085	5.53711
15.09	5.44922
15.095	5.44922
15.1	5.44922
15.105	5.44922
15.11	5.44922
15.115	5.44922
15.12	5.44922
15.125	5.44922
15.13	5.44922
15.135	5.44922
15.14	5.36133
15.145	5.36133
15.15	5.36133
15.155	5.36133
15.16	5.36133
15.165	5.36133
15.17	5.36133
15.175	5.27344
15.18	5.27344
15.185	5.27344
15.19	5.18555
15.195	5.18555
15.2	5.18555
15.205	5.09766
15.21	5.18555
15.215	5.09766
15.22	5.00977
15.225	5.00977
15.23	4.83398
15.235	4.92188
15.24	4.83398
15.245	4.74609
15.25	4.83398
15.255	4.6582
15.26	4.6582
15.265	4.6582
15.27	4.6582
15.275	4.57031
15.28	4.57031
15.285	4.48242
15.29	4.48242
15.295	4.39453
15.3	4.48242
15.305	4.48242
15.31	4.48242
15.315	4.48242
15.32	4.48242
15.325	4.48242
15.33	4.39453
15.335	4.48242
15.34	4.39453
15.345	4.39453
15.35	4.48242
15.355	4.39453
15.36	4.39453
15.365	4.48242
15.37	4.48242
15.375	4.57031
15.38	4.57031
15.385	4.57031
15.39	4.57031
15.395	4.6582
15.4	4.57031
15.405	4.6582
15.41	4.6582
15.415	4.57031
15.42	4.6582
15.425	4.6582
15.43	4.6582
15.435	4.74609
15.44	4.74609
15.445	4.83398
15.45	4.92188
15.455	4.83398
15.46	4.92188
15.465	4.92188
15.47	4.92188
15.475	4.92188
15.48	5.00977
15.485	4.92188
15.49	4.92188
15.495	4.92188
15.5	4.92188
15.505	5.00977
15.51	5.00977
15.515	5.00977
15.52	5.09766
15.525	5.09766
15.53	5.09766
15.535	5.09766
15.54	5.00977
15.545	5.00977
15.55	5.09766
15.555	5.00977
15.56	5.00977
15.565	5.09766
15.57	5.00977
15.575	5.00977
15.58	5.09766
15.585	5.00977
15.59	4.92188
15.595	5.00977
15.6	5.00977
15.605	4.92188
15.61	4.92188
15.615	4.92188
15.62	4.83398
15.625	4.74609
15.63	4.83398
15.635	4.74609
15.64	4.74609
15.645	4.74609
15.65	4.74609
15.655	4.74609
15.66	4.6582
15.665	4.57031
15.67	4.6582
15.675	4.48242
15.68	4.48242
15.685	4.39453
15.69	4.39453
15.695	4.30664
15.7	4.30664
15.705	4.30664
15.71	4.30664
15.715	4.21875
15.72	4.21875
15.725	4.13086
15.73	4.04297
15.735	3.95508
15.74	3.95508
15.745	3.86719
15.75	3.86719
15.755	3.7793
15.76	3.86719
15.765	3.7793
15.77	3.69141
15.775	3.69141
15.78	3.69141
15.785	3.60352
15.79	3.60352
15.795	3.51563
15.8	3.51563
15.805	3.51563
15.81	3.51563
15.815	3.42773
15.82	3.42773
15.825	3.42773
15.83	3.42773
15.835	3.51563
15.84	3.42773
15.845	3.33984
15.85	3.42773
15.855	3.42773
15.86	3.42773
15.865	3.33984
15.87	3.33984
15.875	3.33984
15.88	3.42773
15.885	3.42773
15.89	3.42773
15.895	3.42773
15.9	3.51563
15.905	3.51563
15.91	3.51563
15.915	3.69141
15.92	3.60352
15.925	3.60352
15.93	3.69141
15.935	3.69141
15.94	3.69141
15.945	3.7793
15.95	3.7793
15.955	3.86719
15.96	3.95508
15.965	4.04297
15.97	4.21875
15.975	4.21875
15.98	4.30664
15.985	4.30664
15.99	4.39453
15.995	4.48242
16	4.48242
16.005	4.57031
16.01	4.6582
16.015	4.74609
16.02	4.83398
16.025	4.83398
16.03	4.92188
16.035	4.92188
16.04	5.00977
16.045	5.18555
16.05	5.27344
16.055	5.27344
16.06	5.36133
16.065	5.36133
16.07	5.44922
16.075	5.53711
16.08	5.53711
16.085	5.625
16.09	5.71289
16.095	5.71289
16.1	5.88867
16.105	5.97656
16.11	5.97656
16.115	6.06445
16.12	6.15234
16.125	6.15234
16.13	6.24023
16.135	6.32812
16.14	6.32812
16.145	6.32812
16.15	6.32812
16.155	6.41602
16.16	6.50391
16.165	6.50391
16.17	6.50391
16.175	6.5918
16.18	6.67969
16.185	6.67969
16.19	6.67969
16.195	6.67969
16.2	6.67969
16.205	6.76758
16.21	6.85547
16.215	6.85547
16.22	6.85547
16.225	6.85547
16.23	6.85547
16.235	6.85547
16.24	6.94336
16.245	6.94336
16.25	6.94336
16.255	6.94336
16.26	6.94336
16.265	6.94336
16.27	6.94336
16.275	6.94336
16.28	7.03125
16.285	7.03125
16.29	7.03125
16.295	7.03125
16.3	7.03125
16.305	7.03125
16.31	7.03125
16.315	7.03125
16.32	7.03125
16.325	7.03125
16.33	7.03125
16.335	7.03125
16.34	7.03125
16.345	7.03125
16.35	7.03125
16.355	7.03125
16.36	7.03125
16.365	7.03125
16.37	7.03125
16.375	7.03125
16.38	7.03125
16.385	7.03125
16.39	7.03125
16.395	7.03125
16.4	7.03125
16.405	6.94336
16.41	6.94336
16.415	6.94336
16.42	6.94336
16.425	6.94336
16.43	6.94336
16.435	6.94336
16.44	6.94336
16.445	6.85547
16.45	6.85547
16.455	6.85547
16.46	6.85547
16.465	6.85547
16.47	6.85547
16.475	6.85547
16.48	6.85547
16.485	6.85547
16.49	6.85547
16.495	6.85547
16.5	6.85547
16.505	6.85547
16.51	6.85547
16.515	6.85547
16.52	6.76758
16.525	6.85547
16.53	6.76758
16.535	6.85547
16.54	6.85547
16.545	6.85547
16.55	6.85547
16.555	6.85547
16.56	6.85547
16.565	6.85547
16.57	6.76758
16.575	6.76758
16.58	6.76758
16.585	6.76758
16.59	6.85547
16.595	6.85547
16.6	6.85547
16.605	6.85547
16.61	6.85547
16.615	6.85547
16.62	6.85547
16.625	6.85547
16.63	6.85547
16.635	6.85547
16.64	6.85547
16.645	6.85547
16.65	6.85547
16.655	6.85547
16.66	6.85547
16.665	6.85547
16.67	6.85547
16.675	6.85547
16.68	6.85547
16.685	6.94336
16.69	6.94336
16.695	6.94336
16.7	6.94336
16.705	6.94336
16.71	6.94336
16.715	6.94336
16.72	6.94336
16.725	6.94336
16.73	6.94336
16.735	6.94336
16.74	6.94336
16.745	7.03125
16.75	7.03125
16.755	7.03125
16.76	7.03125
16.765	7.03125
16.77	7.03125
16.775	7.03125
16.78	7.03125
16.785	7.03125
16.79	7.03125
16.795	7.03125
16.8	7.03125
16.805	7.03125
16.81	7.03125
16.815	7.03125
16.82	7.03125
16.825	7.03125
16.83	7.03125
16.835	7.03125
16.84	7.03125
16.845	7.03125
16.85	7.03125
16.855	7.03125
16.86	7.03125
16.865	7.03125
16.87	7.03125
16.875	7.03125
16.88	7.03125
16.885	7.03125
16.89	7.03125
16.895	7.03125
16.9	7.03125
16.905	7.03125
16.91	7.03125
16.915	7.03125
16.92	7.03125
16.925	6.94336
16.93	6.94336
16.935	6.94336
16.94	6.94336
16.945	6.94336
16.95	6.94336
16.955	6.94336
16.96	6.85547
16.965	6.85547
16.97	6.85547
16.975	6.85547
16.98	6.85547
16.985	6.85547
16.99	6.85547
16.995	6.85547
17	6.85547
17.005	6.85547
17.01	6.85547
17.015	6.76758
17.02	6.76758
17.025	6.76758
17.03	6.76758
17.035	6.76758
17.04	6.76758
17.045	6.76758
17.05	6.76758
17.055	6.76758
17.06	6.76758
17.065	6.67969
17.07	6.67969
17.075	6.67969
17.08	6.67969
17.085	6.67969
17.09	6.67969
17.095	6.67969
17.1	6.67969
17.105	6.5918
17.11	6.5918
17.115	6.5918
17.12	6.5918
17.125	6.5918
17.13	6.5918
17.135	6.5918
17.14	6.5918
17.145	6.5918
17.15	6.5918
17.155	6.50391
17.16	6.50391
17.165	6.50391
17.17	6.50391
17.175	6.50391
17.18	6.50391
17.185	6.50391
17.19	6.50391
17.195	6.50391
17.2	6.50391
17.205	6.50391
17.21	6.50391
17.215	6.50391
17.22	6.50391
17.225	6.50391
17.23	6.50391
17.235	6.50391
17.24	6.41602
17.245	6.41602
17.25	6.41602
17.255	6.41602
17.26	6.41602
17.265	6.41602
17.27	6.41602
17.275	6.41602
17.28	6.41602
17.285	6.41602
17.29	6.41602
17.295	6.41602
17.3	6.41602
17.305	6.41602
17.31	6.41602
17.315	6.41602
17.32	6.41602
17.325	6.41602
17.33	6.41602
17.335	6.32812
17.34	6.41602
17.345	6.32812
17.35	6.32812
17.355	6.32812
17.36	6.32812
17.365	6.32812
17.37	6.32812
17.375	6.32812
17.38	6.32812
17.385	6.32812
17.39	6.32812
17.395	6.32812
17.4	6.32812
17.405	6.32812
17.41	6.32812
17.415	6.32812
17.42	6.32812
17.425	6.32812
17.43	6.32812
17.435	6.32812
17.44	6.32812
17.445	6.32812
17.45	6.32812
17.455	6.24023
17.46	6.24023
17.465	6.24023
17.47	6.24023
17.475	6.24023
17.48	6.24023
17.485	6.24023
17.49	6.24023
17.495	6.24023
17.5	6.24023
17.505	6.24023
17.51	6.24023
17.515	6.24023
17.52	6.24023
17.525	6.24023
17.53	6.24023
17.535	6.24023
17.54	6.24023
17.545	6.24023
17.55	6.24023
17.555	6.24023
17.56	6.24023
17.565	6.24023
17.57	6.15234
17.575	6.15234
17.58	6.15234
17.585	6.15234
17.59	6.15234
17.595	6.15234
17.6	6.15234
17.605	6.15234
17.61	6.15234
17.615	6.15234
17.62	6.15234
17.625	6.15234
17.63	6.15234
17.635	6.15234
17.64	6.06445
17.645	6.06445
17.65	6.06445
17.655	6.06445
17.66	6.06445
17.665	6.06445
17.67	5.97656
17.675	5.97656
17.68	5.97656
17.685	5.97656
17.69	5.97656
17.695	5.97656
17.7	5.97656
17.705	5.97656
17.71	5.97656
17.715	5.97656
17.72	5.97656
17.725	5.88867
17.73	5.88867
17.735	5.88867
17.74	5.88867
17.745	5.88867
17.75	5.88867
17.755	5.88867
17.76	5.88867
17.765	5.88867
17.77	5.88867
17.775	5.80078
17.78	5.88867
17.785	5.80078
17.79	5.80078
17.795	5.80078
17.8	5.80078
17.805	5.80078
17.81	5.80078
17.815	5.80078
17.82	5.80078
17.825	5.80078
17.83	5.80078
17.835	5.80078
17.84	5.80078
17.845	5.80078
17.85	5.80078
17.855	5.80078
17.86	5.80078
17.865	5.80078
17.87	5.71289
17.875	5.71289
17.88	5.71289
17.885	5.71289
17.89	5.71289
17.895	5.71289
17.9	5.71289
17.905	5.71289
17.91	5.71289
17.915	5.71289
17.92	5.71289
17.925	5.71289
17.93	5.71289
17.935	5.71289
17.94	5.71289
17.945	5.71289
17.95	5.71289
17.955	5.71289
17.96	5.71289
17.965	5.71289
17.97	5.71289
17.975	5.71289
17.98	5.71289
17.985	5.71289
17.99	5.71289
17.995	5.71289
18	5.71289
18.005	5.71289
18.01	5.71289
18.015	5.71289
18.02	5.71289
18.025	5.71289
18.03	5.71289
18.035	5.80078
18.04	5.80078
18.045	5.80078
18.05	5.80078
18.055	5.80078
18.06	5.80078
18.065	5.80078
18.07	5.80078
18.075	5.80078
18.08	5.80078
18.085	5.80078
18.09	5.80078
18.095	5.80078
18.1	5.80078
18.105	5.80078
18.11	5.80078
18.115	5.80078
18.12	5.80078
18.125	5.80078
18.13	5.88867
18.135	5.88867
18.14	5.88867
18.145	5.88867
18.15	5.88867
18.155	5.88867
18.16	5.88867
18.165	5.88867
18.17	5.88867
18.175	5.88867
18.18	5.88867
18.185	5.88867
18.19	5.88867
18.195	5.88867
18.2	5.88867
18.205	5.88867
18.21	5.88867
18.215	5.88867
18.22	5.88867
18.225	5.88867
18.23	5.97656
18.235	5.88867
18.24	5.97656
18.245	5.97656
18.25	5.97656
18.255	5.97656
18.26	5.97656
18.265	5.97656
18.27	5.97656
18.275	5.97656
18.28	5.97656
18.285	5.97656
18.29	5.97656
18.295	5.97656
18.3	5.97656
18.305	5.97656
18.31	5.97656
18.315	5.97656
18.32	5.97656
18.325	5.97656
18.33	5.97656
18.335	6.06445
18.34	6.06445
18.345	6.06445
18.35	6.06445
18.355	6.06445
18.36	6.06445
18.365	6.06445
18.37	6.06445
18.375	6.06445
18.38	6.06445
18.385	6.06445
18.39	6.06445
18.395	6.06445
18.4	6.15234
18.405	6.15234
18.41	6.15234
18.415	6.15234
18.42	6.15234
18.425	6.15234
18.43	6.15234
18.435	6.15234
18.44	6.15234
18.445	6.15234
18.45	6.15234
18.455	6.15234
18.46	6.15234
18.465	6.15234
18.47	6.24023
18.475	6.24023
18.48	6.24023
18.485	6.24023
18.49	6.24023
18.495	6.24023
18.5	6.24023
18.505	6.24023
18.51	6.24023
18.515	6.24023
18.52	6.24023
18.525	6.32812
18.53	6.32812
18.535	6.32812
18.54	6.32812
18.545	6.32812
18.55	6.32812
18.555	6.32812
18.56	6.32812
18.565	6.32812
18.57	6.32812
18.575	6.32812
18.58	6.32812
18.585	6.32812
18.59	6.32812
18.595	6.32812
18.6	6.32812
18.605	6.32812
18.61	6.32812
18.615	6.32812
18.62	6.32812
18.625	6.41602
18.63	6.32812
18.635	6.41602
18.64	6.32812
18.645	6.41602
18.65	6.41602
18.655	6.41602
18.66	6.41602
18.665	6.41602
18.67	6.41602
18.675	6.41602
18.68	6.41602
18.685	6.41602
18.69	6.41602
18.695	6.41602
18.7	6.41602
18.705	6.41602
18.71	6.41602
18.715	6.41602
18.72	6.41602
18.725	6.41602
18.73	6.41602
18.735	6.50391
18.74	6.50391
18.745	6.50391
18.75	6.50391
18.755	6.50391
18.76	6.50391
18.765	6.50391
18.77	6.50391
18.775	6.50391
18.78	6.50391
18.785	6.50391
18.79	6.50391
18.795	6.50391
18.8	6.50391
18.805	6.50391
18.81	6.50391
18.815	6.50391
18.82	6.50391
18.825	6.5918
18.83	6.5918
18.835	6.5918
18.84	6.5918
18.845	6.5918
18.85	6.5918
18.855	6.5918
18.86	6.5918
18.865	6.5918
18.87	6.5918
18.875	6.5918
18.88	6.5918
18.885	6.5918
18.89	6.5918
18.895	6.5918
18.9	6.5918
18.905	6.5918
18.91	6.5918
18.915	6.5918
18.92	6.5918
18.925	6.5918
18.93	6.5918
18.935	6.5918
18.94	6.5918
18.945	6.5918
18.95	6.5918
18.955	6.5918
18.96	6.5918
18.965	6.5918
18.97	6.5918
18.975	6.5918
18.98	6.5918
18.985	6.5918
18.99	6.5918
18.995	6.5918
19	6.5918
19.005	6.5918
19.01	6.5918
19.015	6.5918
19.02	6.5918
19.025	6.5918
19.03	6.5918
19.035	6.5918
19.04	6.5918
19.045	6.5918
19.05	6.5918
19.055	6.5918
19.06	6.5918
19.065	6.5918
19.07	6.5918
19.075	6.5918
19.08	6.5918
19.085	6.5918
19.09	6.5918
19.095	6.5918
19.1	6.5918
19.105	6.5918
19.11	6.67969
19.115	6.5918
19.12	6.5918
19.125	6.67969
19.13	6.67969
19.135	6.67969
19.14	6.67969
19.145	6.67969
19.15	6.67969
19.155	6.67969
19.16	6.67969
19.165	6.67969
19.17	6.67969
19.175	6.67969
19.18	6.67969
19.185	6.67969
19.19	6.67969
19.195	6.67969
19.2	6.67969
19.205	6.67969
19.21	6.67969
19.215	6.67969
19.22	6.67969
19.225	6.67969
19.23	6.67969
19.235	6.67969
19.24	6.67969
19.245	6.67969
19.25	6.67969
19.255	6.67969
19.26	6.67969
19.265	6.67969
19.27	6.67969
19.275	6.67969
19.28	6.67969
19.285	6.5918
19.29	6.5918
19.295	6.5918
19.3	6.5918
19.305	6.5918
19.31	6.5918
19.315	6.5918
19.32	6.5918
19.325	6.5918
19.33	6.5918
19.335	6.5918
19.34	6.5918
19.345	6.5918
19.35	6.5918
19.355	6.5918
19.36	6.5918
19.365	6.5918
19.37	6.5918
19.375	6.5918
19.38	6.5918
19.385	6.5918
19.39	6.5918
19.395	6.5918
19.4	6.5918
19.405	6.5918
19.41	6.5918
19.415	6.5918
19.42	6.5918
19.425	6.5918
19.43	6.5918
19.435	6.5918
19.44	6.5918
19.445	6.5918
19.45	6.5918
19.455	6.5918
19.46	6.5918
19.465	6.5918
19.47	6.5918
19.475	6.5918
19.48	6.5918
19.485	6.5918
19.49	6.5918
19.495	6.5918
19.5	6.5918
19.505	6.50391
19.51	6.5918
19.515	6.5918
19.52	6.50391
19.525	6.5918
19.53	6.50391
19.535	6.50391
19.54	6.50391
19.545	6.50391
19.55	6.50391
19.555	6.50391
19.56	6.50391
19.565	6.50391
19.57	6.50391
19.575	6.50391
19.58	6.50391
19.585	6.50391
19.59	6.50391
19.595	6.50391
19.6	6.50391
19.605	6.50391
19.61	6.50391
19.615	6.50391
19.62	6.50391
19.625	6.50391
19.63	6.50391
19.635	6.50391
19.64	6.50391
19.645	6.50391
19.65	6.50391
19.655	6.50391
19.66	6.50391
19.665	6.50391
19.67	6.50391
19.675	6.50391
19.68	6.50391
19.685	6.50391
19.69	6.50391
19.695	6.50391
19.7	6.50391
19.705	6.50391
19.71	6.50391
19.715	6.50391
19.72	6.50391
19.725	6.50391
19.73	6.50391
19.735	6.50391
19.74	6.50391
19.745	6.50391
19.75	6.50391
19.755	6.50391
19.76	6.50391
19.765	6.50391
19.77	6.50391
19.775	6.50391
19.78	6.50391
19.785	6.50391
19.79	6.50391
19.795	6.50391
19.8	6.50391
19.805	6.50391
19.81	6.50391
19.815	6.50391
19.82	6.50391
19.825	6.50391
19.83	6.50391
19.835	6.41602
19.84	6.50391
19.845	6.41602
19.85	6.41602
19.855	6.41602
19.86	6.41602
19.865	6.41602
19.87	6.41602
19.875	6.41602
19.88	6.41602
19.885	6.41602
19.89	6.41602
19.895	6.41602
19.9	6.41602
19.905	6.41602
19.91	6.41602
19.915	6.41602
19.92	6.41602
19.925	6.32812
19.93	6.41602
19.935	6.32812
19.94	6.32812
19.945	6.32812
19.95	6.32812
19.955	6.32812
19.96	6.32812
19.965	6.32812
19.97	6.32812
19.975	6.32812
19.98	6.32812
19.985	6.32812
19.99	6.32812
19.995	6.32812
20	6.32812
20.005	6.32812
20.01	6.32812
20.015	6.32812
20.02	6.41602
20.025	6.41602
20.03	6.41602
20.035	6.41602
20.04	6.41602
20.045	6.32812
20.05	6.32812
20.055	6.32812
20.06	6.32812
20.065	6.32812
20.07	6.32812
20.075	6.32812
20.08	6.32812
20.085	6.32812
20.09	6.32812
20.095	6.32812
20.1	6.24023
20.105	6.24023
20.11	6.24023
20.115	6.15234
20.12	6.15234
20.125	6.06445
20.13	6.06445
20.135	6.06445
20.14	5.97656
20.145	5.88867
20.15	5.88867
20.155	5.80078
20.16	5.71289
20.165	5.71289
20.17	5.53711
20.175	5.44922
20.18	5.27344
20.185	5.27344
20.19	5.18555
20.195	5.00977
20.2	5.00977
20.205	4.6582
20.21	4.57031
20.215	4.48242
20.22	4.21875
20.225	4.13086
20.23	4.04297
20.235	3.7793
20.24	3.69141
20.245	3.42773
20.25	3.25195
20.255	3.16406
20.26	2.90039
20.265	2.8125
20.27	2.63672
20.275	2.10938
20.28	2.02148
20.285	1.93359
20.29	1.31836
20.295	1.14258
20.3	0.966797
20.305	0.703125
20.31	0.527344
20.315	0.351562
20.32	-0.175781
20.325	-0.439453
20.33	-0.615234
20.335	-0.878906
20.34	-1.05469
20.345	-1.31836
20.35	-1.66992
20.355	-1.8457
20.36	-2.10938
20.365	-2.63672
20.37	-2.90039
20.375	-3.07617
20.38	-3.42773
20.385	-3.69141
20.39	-3.86719
20.395	-4.39453
20.4	-4.6582
20.405	-5.18555
20.41	-5.44922
20.415	-5.625
20.42	-5.97656
20.425	-6.15234
20.43	-6.32812
20.435	-6.85547
20.44	-7.03125
20.445	-7.20703
20.45	-7.55859
20.455	-7.73437
20.46	-7.82227
20.465	-8.26172
20.47	-8.4375
20.475	-8.96484
20.48	-9.14063
20.485	-9.22852
20.49	-9.4043
20.495	-9.58008
20.5	-9.66797
20.505	-10.0195
20.51	-10.1074
20.515	-10.1953
20.52	-10.3711
20.525	-10.5469
20.53	-10.5469
20.535	-10.7227
20.54	-10.7227
20.545	-10.8105
20.55	-10.8105
20.555	-10.8105
20.56	-10.8105
20.565	-10.7227
20.57	-10.7227
20.575	-10.7227
20.58	-10.6348
20.585	-10.5469
20.59	-10.5469
20.595	-10.2832
20.6	-10.2832
20.605	-10.1953
20.61	-9.93164
20.615	-9.84375
20.62	-9.66797
20.625	-9.4043
20.63	-9.22852
20.635	-9.14063
20.64	-8.78906
20.645	-8.61328
20.65	-8.52539
20.655	-8.08594
20.66	-7.99805
20.665	-7.73437
20.67	-7.4707
20.675	-7.29492
20.68	-7.11914
20.685	-6.50391
20.69	-6.32812
20.695	-5.80078
20.7	-5.625
20.705	-5.44922
20.71	-5.09766
20.715	-4.92188
20.72	-4.83398
20.725	-4.13086
20.73	-3.95508
20.735	-3.7793
20.74	-3.33984
20.745	-3.25195
20.75	-3.07617
20.755	-2.37305
20.76	-2.10938
20.765	-1.40625
20.77	-1.23047
20.775	-0.615234
20.78	-0.527344
20.785	-0.351562
20.79	0.0878906
20.795	0.263672
20.8	0.439453
20.805	0.703125
20.81	0.878906
20.815	1.05469
20.82	1.40625
20.825	1.49414
20.83	1.8457
20.835	1.93359
20.84	2.10938
20.845	2.37305
20.85	2.46094
20.855	2.8125
20.86	2.90039
20.865	3.07617
20.87	3.33984
20.875	3.42773
20.88	3.51563
20.885	3.7793
20.89	3.86719
20.895	3.95508
20.9	4.13086
20.905	4.21875
20.91	4.30664
20.915	4.39453
20.92	4.57031
20.925	4.57031
20.93	4.92188
20.935	5.00977
20.94	5.09766
20.945	5.18555
20.95	5.27344
20.955	5.36133
20.96	5.53711
20.965	5.53711
20.97	5.71289
20.975	5.80078
20.98	5.88867
20.985	6.06445
20.99	6.15234
20.995	6.15234
21	6.41602
21.005	6.50391
21.01	6.50391
21.015	6.67969
21.02	6.67969
21.025	6.76758
21.03	7.03125
21.035	7.11914
21.04	7.29492
21.045	7.29492
21.05	7.38281
21.055	7.55859
21.06	7.64648
21.065	7.73437
21.07	7.91016
21.075	7.99805
21.08	7.99805
21.085	8.26172
21.09	8.34961
21.095	8.52539
21.1	8.61328
21.105	8.70117
21.11	8.96484
21.115	9.14063
21.12	9.31641
21.125	9.4043
21.13	9.4043
21.135	9.66797
21.14	9.75586
21.145	9.84375
21.15	10.0195
21.155	10.1074
21.16	10.1953
21.165	10.459
21.17	10.5469
21.175	10.5469
21.18	10.7227
21.185	10.8105
21.19	10.8984
21.195	11.0742
21.2	11.1621
21.205	11.25
21.21	11.5137
21.215	11.6016
21.22	11.6895
21.225	11.8652
21.23	11.9531
21.235	12.2168
21.24	12.3047
21.245	12.3047
21.25	12.5684
21.255	12.6562
21.26	12.6562
21.265	12.9199
21.27	13.0078
21.275	13.0957
21.28	13.1836
21.285	13.2715
21.29	13.3594
21.295	13.3594
21.3	13.3594
21.305	13.5352
21.31	13.5352
21.315	13.7109
21.32	13.7109
21.325	13.7109
21.33	13.8867
21.335	13.8867
21.34	13.8867
21.345	14.0625
21.35	14.0625
21.355	14.0625
21.36	14.1504
21.365	14.1504
21.37	14.2383
21.375	14.3262
21.38	14.3262
21.385	14.3262
21.39	14.3262
21.395	14.3262
21.4	14.4141
21.405	14.4141
21.41	14.4141
21.415	14.502
21.42	14.502
21.425	14.502
21.43	14.502
21.435	14.502
21.44	14.502
21.445	14.502
21.45	14.5898
21.455	14.502
21.46	14.502
21.465	14.502
21.47	14.502
21.475	14.502
21.48	14.502
21.485	14.502
21.49	14.502
21.495	14.4141
21.5	14.4141
21.505	14.502
21.51	14.4141
21.515	14.4141
21.52	14.4141
21.525	14.4141
21.53	14.4141
21.535	14.4141
21.54	14.3262
21.545	14.3262
21.55	14.3262
21.555	14.3262
21.56	14.2383
21.565	14.2383
21.57	14.2383
21.575	14.2383
21.58	14.1504
21.585	14.1504
21.59	14.0625
21.595	14.0625
21.6	13.9746
21.605	13.8867
21.61	13.8867
21.615	13.8867
21.62	13.7988
21.625	13.7988
21.63	13.7988
21.635	13.7109
21.64	13.7109
21.645	13.623
21.65	13.623
21.655	13.5352
21.66	13.5352
21.665	13.5352
21.67	13.5352
21.675	13.4473
21.68	13.3594
21.685	13.3594
21.69	13.2715
21.695	13.2715
21.7	13.1836
21.705	13.1836
21.71	13.1836
21.715	13.0957
21.72	13.0957
21.725	13.0078
21.73	13.0078
21.735	12.9199
21.74	12.9199
21.745	12.9199
21.75	12.832
21.755	12.832
21.76	12.7441
21.765	12.7441
21.77	12.7441
21.775	12.7441
21.78	12.6562
21.785	12.6562
21.79	12.6562
21.795	12.6562
21.8	12.6562
21.805	12.6562
21.81	12.6562
21.815	12.6562
21.82	12.5684
21.825	12.5684
21.83	12.5684
21.835	12.4805
21.84	12.4805
21.845	12.4805
21.85	12.4805
21.855	12.4805
21.86	12.4805
21.865	12.4805
21.87	12.4805
21.875	12.4805
21.88	12.4805
21.885	12.4805
21.89	12.3926
21.895	12.3926
21.9	12.3926
21.905	12.3047
21.91	12.3047
21.915	12.3047
21.92	12.2168
21.925	12.2168
21.93	12.2168
21.935	12.2168
21.94	12.2168
21.945	12.2168
21.95	12.2168
21.955	12.2168
21.96	12.1289
21.965	12.1289
21.97	12.1289
21.975	12.041
21.98	12.041
21.985	11.9531
21.99	11.9531
21.995	11.8652
22	11.8652
22.005	11.8652
22.01	11.7773
22.015	11.7773
22.02	11.7773
22.025	11.7773
22.03	11.6895
22.035	11.6895
22.04	11.6016
22.045	11.6016
22.05	11.5137
22.055	11.5137
22.06	11.4258
22.065	11.4258
22.07	11.3379
22.075	11.3379
22.08	11.25
22.085	11.25
22.09	11.25
22.095	11.1621
22.1	11.1621
22.105	11.1621
22.11	11.0742
22.115	11.0742
22.12	11.0742
22.125	10.8984
22.13	10.8984
22.135	10.8105
22.14	10.8105
22.145	10.7227
22.15	10.7227
22.155	10.6348
22.16	10.6348
22.165	10.6348
22.17	10.5469
22.175	10.5469
22.18	10.459
22.185	10.459
22.19	10.459
22.195	10.3711
22.2	10.2832
22.205	10.1953
22.21	10.1953
22.215	10.1074
22.22	10.0195
22.225	10.0195
22.23	9.93164
22.235	9.93164
22.24	9.84375
22.245	9.84375
22.25	9.84375
22.255	9.75586
22.26	9.75586
22.265	9.66797
22.27	9.66797
22.275	9.66797
22.28	9.58008
22.285	9.49219
22.29	9.4043
22.295	9.4043
22.3	9.31641
22.305	9.31641
22.31	9.31641
22.315	9.31641
22.32	9.22852
22.325	9.22852
22.33	9.22852
22.335	9.22852
22.34	9.14063
22.345	9.14063
22.35	9.05273
22.355	9.05273
22.36	9.05273
22.365	8.96484
22.37	8.96484
22.375	8.87695
22.38	8.78906
22.385	8.78906
22.39	8.78906
22.395	8.78906
22.4	8.70117
22.405	8.70117
22.41	8.70117
22.415	8.70117
22.42	8.61328
22.425	8.61328
22.43	8.61328
22.435	8.52539
22.44	8.4375
22.445	8.4375
22.45	8.4375
22.455	8.4375
22.46	8.34961
22.465	8.34961
22.47	8.34961
22.475	8.26172
22.48	8.26172
22.485	8.26172
22.49	8.26172
22.495	8.17383
22.5	8.17383
22.505	8.17383
22.51	8.08594
22.515	8.08594
22.52	8.08594
22.525	7.99805
22.53	7.99805
22.535	7.99805
22.54	7.91016
22.545	7.91016
22.55	7.91016
22.555	7.91016
22.56	7.91016
22.565	7.82227
22.57	7.82227
22.575	7.82227
22.58	7.82227
22.585	7.82227
22.59	7.73437
22.595	7.73437
22.6	7.73437
22.605	7.73437
22.61	7.64648
22.615	7.64648
22.62	7.64648
22.625	7.64648
22.63	7.55859
22.635	7.55859
22.64	7.55859
22.645	7.55859
22.65	7.4707
22.655	7.4707
22.66	7.4707
22.665	7.4707
22.67	7.4707
22.675	7.38281
22.68	7.38281
22.685	7.38281
22.69	7.38281
22.695	7.29492
22.7	7.29492
22.705	7.20703
22.71	7.20703
22.715	7.20703
22.72	7.20703
22.725	7.20703
22.73	7.11914
22.735	7.11914
22.74	7.11914
22.745	7.11914
22.75	7.11914
22.755	7.03125
22.76	7.03125
22.765	7.03125
22.77	7.03125
22.775	7.03125
22.78	6.94336
22.785	6.94336
22.79	6.94336
22.795	6.94336
22.8	6.94336
22.805	6.85547
22.81	6.85547
22.815	6.85547
22.82	6.85547
22.825	6.85547
22.83	6.85547
22.835	6.85547
22.84	6.85547
22.845	6.85547
22.85	6.85547
22.855	6.76758
22.86	6.76758
22.865	6.76758
22.87	6.76758
22.875	6.76758
22.88	6.76758
22.885	6.76758
22.89	6.67969
22.895	6.67969
22.9	6.67969
22.905	6.67969
22.91	6.67969
22.915	6.67969
22.92	6.67969
22.925	6.67969
22.93	6.5918
22.935	6.5918
22.94	6.5918
22.945	6.5918
22.95	6.5918
22.955	6.50391
22.96	6.50391
22.965	6.50391
22.97	6.50391
22.975	6.50391
22.98	6.50391
22.985	6.50391
22.99	6.50391
22.995	6.50391
23	6.50391
23.005	6.41602
23.01	6.50391
23.015	6.50391
23.02	6.41602
23.025	6.41602
23.03	6.41602
23.035	6.41602
23.04	6.41602
23.045	6.41602
23.05	6.41602
23.055	6.32812
23.06	6.32812
23.065	6.32812
23.07	6.32812
23.075	6.32812
23.08	6.32812
23.085	6.32812
23.09	6.32812
23.095	6.32812
23.1	6.32812
23.105	6.32812
23.11	6.32812
23.115	6.32812
23.12	6.32812
23.125	6.32812
23.13	6.32812
23.135	6.24023
23.14	6.24023
23.145	6.24023
23.15	6.24023
23.155	6.24023
23.16	6.15234
23.165	6.15234
23.17	6.15234
23.175	6.15234
23.18	6.15234
23.185	6.15234
23.19	6.15234
23.195	6.15234
23.2	6.15234
23.205	6.15234
23.21	6.15234
23.215	6.15234
23.22	6.06445
23.225	6.06445
23.23	6.06445
23.235	6.06445
23.24	6.06445
23.245	6.06445
23.25	6.06445
23.255	6.06445
23.26	6.06445
23.265	5.97656
23.27	5.97656
23.275	5.97656
23.28	5.97656
23.285	5.97656
23.29	5.97656
23.295	5.97656
23.3	5.88867
23.305	5.88867
23.31	5.88867
23.315	5.88867
23.32	5.88867
23.325	5.88867
23.33	5.88867
23.335	5.88867
23.34	5.88867
23.345	5.88867
23.35	5.88867
23.355	5.80078
23.36	5.80078
23.365	5.88867
23.37	5.80078
23.375	5.88867
23.38	5.80078
23.385	5.80078
23.39	5.80078
23.395	5.80078
23.4	5.71289
23.405	5.71289
23.41	5.71289
23.415	5.71289
23.42	5.71289
23.425	5.71289
23.43	5.71289
23.435	5.71289
23.44	5.71289
23.445	5.71289
23.45	5.71289
23.455	5.625
23.46	5.625
23.465	5.71289
23.47	5.625
23.475	5.625
23.48	5.625
23.485	5.625
23.49	5.625
23.495	5.625
23.5	5.625
23.505	5.53711
23.51	5.53711
23.515	5.53711
23.52	5.53711
23.525	5.53711
23.53	5.53711
23.535	5.53711
23.54	5.53711
23.545	5.53711
23.55	5.53711
23.555	5.53711
23.56	5.53711
23.565	5.53711
23.57	5.53711
23.575	5.53711
23.58	5.53711
23.585	5.44922
23.59	5.44922
23.595	5.44922
23.6	5.44922
23.605	5.44922
23.61	5.44922
23.615	5.44922
23.62	5.44922
23.625	5.44922
23.63	5.44922
23.635	5.44922
23.64	5.44922
23.645	5.44922
23.65	5.44922
23.655	5.44922
23.66	5.44922
23.665	5.36133
23.67	5.36133
23.675	5.36133
23.68	5.36133
23.685	5.36133
23.69	5.36133
23.695	5.36133
23.7	5.36133
23.705	5.36133
23.71	5.36133
23.715	5.36133
23.72	5.36133
23.725	5.36133
23.73	5.36133
23.735	5.27344
23.74	5.27344
23.745	5.27344
23.75	5.27344
23.755	5.27344
23.76	5.27344
23.765	5.27344
23.77	5.27344
23.775	5.27344
23.78	5.27344
23.785	5.27344
23.79	5.27344
23.795	5.27344
23.8	5.27344
23.805	5.27344
23.81	5.27344
23.815	5.27344
23.82	5.18555
23.825	5.18555
23.83	5.18555
23.835	5.18555
23.84	5.18555
23.845	5.18555
23.85	5.18555
23.855	5.18555
23.86	5.18555
23.865	5.18555
23.87	5.18555
23.875	5.18555
23.88	5.18555
23.885	5.18555
23.89	5.18555
23.895	5.18555
23.9	5.18555
23.905	5.18555
23.91	5.18555
23.915	5.18555
23.92	5.18555
23.925	5.18555
23.93	5.18555
23.935	5.18555
23.94	5.09766
23.945	5.18555
23.95	5.18555
23.955	5.18555
23.96	5.18555
23.965	5.18555
23.97	5.18555
23.975	5.18555
23.98	5.18555
23.985	5.18555
23.99	5.18555
23.995	5.18555
24	5.18555
24.005	5.18555
24.01	5.18555
24.015	5.18555
24.02	5.18555
24.025	5.18555
24.03	5.18555
24.035	5.18555
24.04	5.18555
24.045	5.18555
24.05	5.18555
24.055	5.18555
24.06	5.18555
24.065	5.18555
24.07	5.18555
24.075	5.18555
24.08	5.18555
24.085	5.18555
24.09	5.18555
24.095	5.18555
24.1	5.18555
24.105	5.18555
24.11	5.18555
24.115	5.18555
24.12	5.18555
24.125	5.18555
24.13	5.18555
24.135	5.18555
24.14	5.18555
24.145	5.18555
24.15	5.18555
24.155	5.18555
24.16	5.18555
24.165	5.27344
24.17	5.27344
24.175	5.27344
24.18	5.27344
24.185	5.27344
24.19	5.27344
24.195	5.27344
24.2	5.27344
24.205	5.27344
24.21	5.27344
24.215	5.27344
24.22	5.27344
24.225	5.27344
24.23	5.27344
24.235	5.27344
24.24	5.27344
24.245	5.27344
24.25	5.27344
24.255	5.27344
24.26	5.27344
24.265	5.27344
24.27	5.27344
24.275	5.27344
24.28	5.27344
24.285	5.27344
24.29	5.27344
24.295	5.27344
24.3	5.27344
24.305	5.27344
24.31	5.27344
24.315	5.27344
24.32	5.27344
24.325	5.27344
24.33	5.27344
24.335	5.27344
24.34	5.27344
24.345	5.27344
24.35	5.27344
24.355	5.27344
24.36	5.27344
24.365	5.27344
24.37	5.27344
24.375	5.27344
24.38	5.27344
24.385	5.27344
24.39	5.27344
24.395	5.27344
24.4	5.27344
24.405	5.27344
24.41	5.27344
24.415	5.27344
24.42	5.27344
24.425	5.27344
24.43	5.27344
24.435	5.27344
24.44	5.27344
24.445	5.27344
24.45	5.27344
24.455	5.27344
24.46	5.27344
24.465	5.27344
24.47	5.27344
24.475	5.27344
24.48	5.27344
24.485	5.27344
24.49	5.27344
24.495	5.27344
24.5	5.27344
24.505	5.27344
24.51	5.27344
24.515	5.27344
24.52	5.27344
24.525	5.27344
24.53	5.36133
24.535	5.27344
24.54	5.27344
24.545	5.27344
24.55	5.27344
24.555	5.27344
24.56	5.27344
24.565	5.27344
24.57	5.27344
24.575	5.27344
24.58	5.27344
24.585	5.27344
24.59	5.27344
24.595	5.27344
24.6	5.36133
24.605	5.36133
24.61	5.36133
24.615	5.36133
24.62	5.36133
24.625	5.36133
24.63	5.36133
24.635	5.36133
24.64	5.36133
24.645	5.36133
24.65	5.36133
24.655	5.27344
24.66	5.36133
24.665	5.27344
24.67	5.36133
24.675	5.36133
24.68	5.36133
24.685	5.36133
24.69	5.36133
24.695	5.36133
24.7	5.36133
24.705	5.36133
24.71	5.36133
24.715	5.36133
24.72	5.36133
24.725	5.36133
24.73	5.36133
24.735	5.36133
24.74	5.36133
24.745	5.36133
24.75	5.36133
24.755	5.36133
24.76	5.36133
24.765	5.36133
24.77	5.36133
24.775	5.27344
24.78	5.27344
24.785	5.27344
24.79	5.36133
24.795	5.36133
24.8	5.36133
24.805	5.36133
24.81	5.36133
24.815	5.36133
24.82	5.36133
24.825	5.36133
24.83	5.36133
24.835	5.36133
24.84	5.36133
24.845	5.27344
24.85	5.27344
24.855	5.27344
24.86	5.27344
24.865	5.27344
24.87	5.27344
24.875	5.27344
24.88	5.27344
24.885	5.27344
24.89	5.36133
24.895	5.27344
24.9	5.36133
24.905	5.36133
24.91	5.27344
24.915	5.27344
24.92	5.27344
24.925	5.27344
24.93	5.27344
24.935	5.27344
24.94	5.27344
24.945	5.27344
24.95	5.27344
24.955	5.27344
24.96	5.27344
24.965	5.27344
24.97	5.27344
24.975	5.27344
24.98	5.27344
24.985	5.27344
24.99	5.27344
24.995	5.27344
25	5.27344
25.005	5.27344
25.01	5.27344
25.015	5.27344
25.02	5.27344
25.025	5.27344
25.03	5.27344
25.035	5.27344
25.04	5.27344
25.045	5.27344
25.05	5.27344
25.055	5.27344
25.06	5.27344
25.065	5.27344
25.07	5.27344
25.075	5.27344
25.08	5.27344
25.085	5.27344
25.09	5.27344
25.095	5.27344
25.1	5.27344
25.105	5.27344
25.11	5.18555
25.115	5.18555
25.12	5.27344
25.125	5.18555
25.13	5.27344
25.135	5.18555
25.14	5.18555
25.145	5.18555
25.15	5.27344
25.155	5.18555
25.16	5.18555
25.165	5.18555
25.17	5.09766
25.175	5.18555
25.18	5.09766
25.185	5.09766
25.19	5.09766
25.195	5.09766
25.2	5.09766
25.205	5.00977
25.21	5.00977
25.215	5.09766
25.22	5.00977
25.225	5.00977
25.23	5.00977
25.235	4.92188
25.24	4.83398
25.245	4.92188
25.25	4.83398
25.255	4.83398
25.26	4.74609
25.265	4.83398
25.27	4.6582
25.275	4.74609
25.28	4.6582
25.285	4.57031
25.29	4.57031
25.295	4.57031
25.3	4.48242
25.305	4.48242
25.31	4.48242
25.315	4.39453
25.32	4.30664
25.325	4.30664
25.33	4.30664
25.335	4.30664
25.34	4.30664
25.345	4.21875
25.35	4.30664
25.355	4.21875
25.36	4.21875
25.365	4.21875
25.37	4.21875
25.375	4.13086
25.38	4.13086
25.385	4.13086
25.39	4.13086
25.395	4.13086
25.4	4.21875
25.405	4.21875
25.41	4.21875
25.415	4.21875
25.42	4.21875
25.425	4.30664
25.43	4.21875
25.435	4.30664
25.44	4.30664
25.445	4.30664
25.45	4.30664
25.455	4.39453
25.46	4.30664
25.465	4.39453
25.47	4.39453
25.475	4.39453
25.48	4.39453
25.485	4.39453
25.49	4.39453
25.495	4.30664
25.5	4.30664
25.505	4.39453
25.51	4.39453
25.515	4.39453
25.52	4.39453
25.525	4.39453
25.53	4.39453
25.535	4.48242
25.54	4.48242
25.545	4.39453
25.55	4.39453
25.555	4.39453
25.56	4.39453
25.565	4.39453
25.57	4.39453
25.575	4.48242
25.58	4.39453
25.585	4.39453
25.59	4.39453
25.595	4.39453
25.6	4.39453
25.605	4.39453
25.61	4.39453
25.615	4.30664
25.62	4.30664
25.625	4.30664
25.63	4.30664
25.635	4.30664
25.64	4.30664
25.645	4.21875
25.65	4.21875
25.655	4.21875
25.66	4.21875
25.665	4.21875
25.67	4.13086
25.675	4.13086
25.68	4.04297
25.685	4.04297
25.69	4.04297
25.695	4.04297
25.7	4.04297
25.705	4.04297
25.71	3.95508
25.715	3.95508
25.72	3.95508
25.725	3.95508
25.73	3.95508
25.735	3.86719
25.74	3.86719
25.745	3.7793
25.75	3.7793
25.755	3.7793
25.76	3.86719
25.765	3.7793
25.77	3.7793
25.775	3.7793
25.78	3.7793
25.785	3.7793
25.79	3.7793
25.795	3.69141
25.8	3.69141
25.805	3.69141
25.81	3.69141
25.815	3.69141
25.82	3.69141
25.825	3.69141
25.83	3.69141
25.835	3.69141
25.84	3.69141
25.845	3.69141
25.85	3.69141
25.855	3.69141
25.86	3.7793
25.865	3.69141
25.87	3.7793
25.875	3.7793
25.88	3.7793
25.885	3.7793
25.89	3.7793
25.895	3.7793
25.9	3.86719
25.905	3.95508
25.91	3.95508
25.915	3.95508
25.92	4.04297
25.925	4.04297
25.93	4.04297
25.935	4.04297
25.94	4.13086
25.945	4.13086
25.95	4.13086
25.955	4.21875
25.96	4.30664
25.965	4.39453
25.97	4.39453
25.975	4.48242
25.98	4.48242
25.985	4.57031
25.99	4.57031
25.995	4.6582
26	4.6582
26.005	4.74609
26.01	4.74609
26.015	4.83398
26.02	4.92188
26.025	4.92188
26.03	5.09766
26.035	5.18555
26.04	5.36133
26.045	5.36133
26.05	5.44922
26.055	5.44922
26.06	5.53711
26.065	5.53711
26.07	5.625
26.075	5.71289
26.08	5.80078
26.085	5.80078
26.09	5.80078
26.095	5.88867
26.1	5.97656
26.105	5.97656
26.11	5.97656
26.115	6.15234
26.12	6.06445
26.125	6.15234
26.13	6.24023
26.135	6.24023
26.14	6.24023
26.145	6.32812
26.15	6.32812
26.155	6.32812
26.16	6.41602
26.165	6.50391
26.17	6.50391
26.175	6.5918
26.18	6.5918
26.185	6.5918
26.19	6.5918
26.195	6.67969
26.2	6.67969
26.205	6.67969
26.21	6.67969
26.215	6.67969
26.22	6.67969
26.225	6.76758
26.23	6.76758
26.235	6.76758
26.24	6.76758
26.245	6.85547
26.25	6.85547
26.255	6.94336
26.26	6.94336
26.265	6.94336
26.27	6.94336
26.275	6.94336
26.28	7.03125
26.285	7.03125
26.29	7.03125
26.295	7.03125
26.3	7.03125
26.305	7.03125
26.31	7.03125
26.315	7.03125
26.32	7.03125
26.325	7.11914
26.33	7.11914
26.335	7.11914
26.34	7.11914
26.345	7.11914
26.35	7.11914
26.355	7.11914
26.36	7.11914
26.365	7.11914
26.37	7.11914
26.375	7.11914
26.38	7.11914
26.385	7.11914
26.39	7.20703
26.395	7.20703
26.4	7.20703
26.405	7.20703
26.41	7.20703
26.415	7.20703
26.42	7.20703
26.425	7.20703
26.43	7.20703
26.435	7.20703
26.44	7.20703
26.445	7.20703
26.45	7.20703
26.455	7.20703
26.46	7.20703
26.465	7.29492
26.47	7.29492
26.475	7.29492
26.48	7.29492
26.485	7.29492
26.49	7.29492
26.495	7.29492
26.5	7.29492
26.505	7.29492
26.51	7.29492
26.515	7.29492
26.52	7.38281
26.525	7.38281
26.53	7.38281
26.535	7.38281
26.54	7.38281
26.545	7.38281
26.55	7.38281
26.555	7.38281
26.56	7.38281
26.565	7.38281
26.57	7.38281
26.575	7.38281
26.58	7.38281
26.585	7.38281
26.59	7.4707
26.595	7.4707
26.6	7.4707
26.605	7.4707
26.61	7.4707
26.615	7.4707
26.62	7.4707
26.625	7.4707
26.63	7.4707
26.635	7.4707
26.64	7.4707
26.645	7.4707
26.65	7.4707
26.655	7.4707
26.66	7.4707
26.665	7.4707
26.67	7.4707
26.675	7.4707
26.68	7.4707
26.685	7.4707
26.69	7.4707
26.695	7.4707
26.7	7.4707
26.705	7.4707
26.71	7.4707
26.715	7.4707
26.72	7.4707
26.725	7.4707
26.73	7.4707
26.735	7.4707
26.74	7.4707
26.745	7.4707
26.75	7.4707
26.755	7.4707
26.76	7.4707
26.765	7.4707
26.77	7.4707
26.775	7.4707
26.78	7.4707
26.785	7.4707
26.79	7.4707
26.795	7.4707
26.8	7.4707
26.805	7.4707
26.81	7.4707
26.815	7.38281
26.82	7.38281
26.825	7.38281
26.83	7.38281
26.835	7.38281
26.84	7.38281
26.845	7.38281
26.85	7.38281
26.855	7.38281
26.86	7.38281
26.865	7.38281
26.87	7.38281
26.875	7.38281
26.88	7.38281
26.885	7.29492
26.89	7.29492
26.895	7.29492
26.9	7.29492
26.905	7.29492
26.91	7.29492
26.915	7.29492
26.92	7.29492
26.925	7.29492
26.93	7.29492
26.935	7.20703
26.94	7.20703
26.945	7.20703
26.95	7.20703
26.955	7.20703
26.96	7.20703
26.965	7.20703
26.97	7.20703
26.975	7.20703
26.98	7.20703
26.985	7.20703
26.99	7.11914
26.995	7.11914
27	7.11914
27.005	7.11914
27.01	7.11914
27.015	7.11914
27.02	7.11914
27.025	7.03125
27.03	7.11914
27.035	7.03125
27.04	7.03125
27.045	7.03125
27.05	7.03125
27.055	7.03125
27.06	7.03125
27.065	7.03125
27.07	7.03125
27.075	7.03125
27.08	7.03125
27.085	7.03125
27.09	7.03125
27.095	6.94336
27.1	6.94336
27.105	6.94336
27.11	6.94336
27.115	6.94336
27.12	6.94336
27.125	6.94336
27.13	6.85547
27.135	6.85547
27.14	6.85547
27.145	6.85547
27.15	6.85547
27.155	6.85547
27.16	6.85547
27.165	6.85547
27.17	6.85547
27.175	6.85547
27.18	6.85547
27.185	6.85547
27.19	6.85547
27.195	6.85547
27.2	6.85547
27.205	6.76758
27.21	6.76758
27.215	6.76758
27.22	6.76758
27.225	6.76758
27.23	6.76758
27.235	6.76758
27.24	6.76758
27.245	6.76758
27.25	6.67969
27.255	6.76758
27.26	6.67969
27.265	6.67969
27.27	6.67969
27.275	6.67969
27.28	6.67969
27.285	6.67969
27.29	6.67969
27.295	6.67969
27.3	6.67969
27.305	6.67969
27.31	6.67969
27.315	6.5918
27.32	6.67969
27.325	6.5918
27.33	6.5918
27.335	6.5918
27.34	6.5918
27.345	6.5918
27.35	6.50391
27.355	6.50391
27.36	6.50391
27.365	6.50391
27.37	6.50391
27.375	6.50391
27.38	6.50391
27.385	6.50391
27.39	6.50391
27.395	6.50391
27.4	6.50391
27.405	6.50391
27.41	6.50391
27.415	6.50391
27.42	6.41602
27.425	6.41602
27.43	6.41602
27.435	6.41602
27.44	6.41602
27.445	6.41602
27.45	6.41602
27.455	6.41602
27.46	6.41602
27.465	6.41602
27.47	6.41602
27.475	6.41602
27.48	6.32812
27.485	6.32812
27.49	6.32812
27.495	6.32812
27.5	6.32812
27.505	6.32812
27.51	6.32812
27.515	6.32812
27.52	6.32812
27.525	6.32812
27.53	6.32812
27.535	6.32812
27.54	6.32812
27.545	6.32812
27.55	6.32812
27.555	6.32812
27.56	6.32812
27.565	6.32812
27.57	6.32812
27.575	6.24023
27.58	6.24023
27.585	6.24023
27.59	6.24023
27.595	6.24023
27.6	6.24023
27.605	6.24023
27.61	6.24023
27.615	6.24023
27.62	6.24023
27.625	6.24023
27.63	6.24023
27.635	6.24023
27.64	6.24023
27.645	6.24023
27.65	6.24023
27.655	6.24023
27.66	6.24023
27.665	6.24023
27.67	6.24023
27.675	6.24023
27.68	6.24023
27.685	6.15234
27.69	6.24023
27.695	6.24023
27.7	6.24023
27.705	6.15234
27.71	6.15234
27.715	6.15234
27.72	6.15234
27.725	6.15234
27.73	6.15234
27.735	6.15234
27.74	6.15234
27.745	6.15234
27.75	6.15234
27.755	6.15234
27.76	6.15234
27.765	6.15234
27.77	6.15234
27.775	6.15234
27.78	6.15234
27.785	6.15234
27.79	6.15234
27.795	6.15234
27.8	6.15234
27.805	6.15234
27.81	6.15234
27.815	6.15234
27.82	6.15234
27.825	6.15234
27.83	6.15234
27.835	6.15234
27.84	6.15234
27.845	6.15234
27.85	6.15234
27.855	6.15234
27.86	6.15234
27.865	6.15234
27.87	6.15234
27.875	6.24023
27.88	6.24023
27.885	6.24023
27.89	6.24023
27.895	6.24023
27.9	6.24023
27.905	6.24023
27.91	6.24023
27.915	6.24023
27.92	6.24023
27.925	6.24023
27.93	6.24023
27.935	6.24023
27.94	6.24023
27.945	6.24023
27.95	6.15234
27.955	6.24023
27.96	6.24023
27.965	6.15234
27.97	6.15234
27.975	6.15234
27.98	6.15234
27.985	6.15234
27.99	6.15234
27.995	6.15234
28	6.15234
28.005	6.15234
28.01	6.15234
28.015	6.15234
28.02	6.15234
28.025	6.15234
28.03	6.15234
28.035	6.15234
28.04	6.15234
28.045	6.15234
28.05	6.15234
28.055	6.15234
28.06	6.15234
28.065	6.15234
28.07	6.15234
28.075	6.15234
28.08	6.15234
28.085	6.15234
28.09	6.15234
28.095	6.15234
28.1	6.15234
28.105	6.15234
28.11	6.06445
28.115	6.15234
28.12	6.06445
28.125	6.15234
28.13	6.06445
28.135	6.06445
28.14	6.06445
28.145	6.06445
28.15	6.06445
28.155	6.06445
28.16	6.06445
28.165	6.06445
28.17	6.06445
28.175	6.06445
28.18	6.06445
28.185	6.06445
28.19	6.06445
28.195	6.06445
28.2	6.06445
28.205	6.06445
28.21	6.06445
28.215	6.06445
28.22	6.06445
28.225	6.06445
28.23	6.06445
28.235	6.06445
28.24	6.06445
28.245	6.06445
28.25	6.06445
28.255	6.06445
28.26	6.06445
28.265	6.06445
28.27	6.06445
28.275	6.06445
28.28	6.06445
28.285	6.06445
28.29	6.06445
28.295	6.06445
28.3	6.06445
28.305	6.06445
28.31	6.06445
28.315	6.06445
28.32	6.06445
28.325	6.06445
28.33	6.06445
28.335	6.06445
28.34	6.06445
28.345	6.06445
28.35	6.06445
28.355	6.06445
28.36	6.06445
28.365	6.06445
28.37	6.06445
28.375	6.06445
28.38	6.06445
28.385	6.06445
28.39	6.06445
28.395	6.06445
28.4	6.06445
28.405	6.06445
28.41	6.06445
28.415	6.15234
28.42	6.06445
28.425	6.15234
28.43	6.15234
28.435	6.15234
28.44	6.15234
28.445	6.15234
28.45	6.15234
28.455	6.15234
28.46	6.15234
28.465	6.15234
28.47	6.15234
28.475	6.15234
28.48	6.15234
28.485	6.15234
28.49	6.15234
28.495	6.15234
28.5	6.15234
28.505	6.15234
28.51	6.15234
28.515	6.15234
28.52	6.15234
28.525	6.15234
28.53	6.15234
28.535	6.24023
28.54	6.24023
28.545	6.24023
28.55	6.24023
28.555	6.24023
28.56	6.24023
28.565	6.24023
28.57	6.24023
28.575	6.24023
28.58	6.24023
28.585	6.24023
28.59	6.24023
28.595	6.24023
28.6	6.24023
28.605	6.24023
28.61	6.24023
28.615	6.24023
28.62	6.24023
28.625	6.24023
28.63	6.24023
28.635	6.24023
28.64	6.24023
28.645	6.24023
28.65	6.24023
28.655	6.24023
28.66	6.24023
28.665	6.24023
28.67	6.24023
28.675	6.24023
28.68	6.24023
28.685	6.24023
28.69	6.24023
28.695	6.24023
28.7	6.32812
28.705	6.32812
28.71	6.32812
28.715	6.32812
28.72	6.32812
28.725	6.32812
28.73	6.32812
28.735	6.32812
28.74	6.32812
28.745	6.32812
28.75	6.32812
28.755	6.32812
28.76	6.32812
28.765	6.32812
28.77	6.32812
28.775	6.32812
28.78	6.32812
28.785	6.41602
28.79	6.32812
28.795	6.32812
28.8	6.41602
28.805	6.41602
28.81	6.41602
28.815	6.41602
28.82	6.41602
28.825	6.41602
28.83	6.41602
28.835	6.41602
28.84	6.41602
28.845	6.41602
28.85	6.41602
28.855	6.41602
28.86	6.41602
28.865	6.50391
28.87	6.50391
28.875	6.50391
28.88	6.50391
28.885	6.50391
28.89	6.50391
28.895	6.50391
28.9	6.50391
28.905	6.50391
28.91	6.50391
28.915	6.50391
28.92	6.50391
28.925	6.5918
28.93	6.5918
28.935	6.5918
28.94	6.5918
28.945	6.5918
28.95	6.5918
28.955	6.5918
28.96	6.5918
28.965	6.5918
28.97	6.5918
28.975	6.5918
28.98	6.5918
28.985	6.5918
28.99	6.5918
28.995	6.67969
29	6.5918
29.005	6.5918
29.01	6.67969
29.015	6.5918
29.02	6.67969
29.025	6.5918
29.03	6.67969
29.035	6.67969
29.04	6.67969
29.045	6.67969
29.05	6.67969
29.055	6.67969
29.06	6.67969
29.065	6.67969
29.07	6.67969
29.075	6.67969
29.08	6.67969
29.085	6.67969
29.09	6.67969
29.095	6.67969
29.1	6.67969
29.105	6.67969
29.11	6.67969
29.115	6.67969
29.12	6.67969
29.125	6.67969
29.13	6.67969
29.135	6.67969
29.14	6.67969
29.145	6.67969
29.15	6.67969
29.155	6.67969
29.16	6.67969
29.165	6.67969
29.17	6.67969
29.175	6.67969
29.18	6.67969
29.185	6.5918
29.19	6.67969
29.195	6.67969
29.2	6.67969
29.205	6.67969
29.21	6.67969
29.215	6.67969
29.22	6.67969
29.225	6.67969
29.23	6.67969
29.235	6.67969
29.24	6.67969
29.245	6.67969
29.25	6.67969
29.255	6.67969
29.26	6.67969
29.265	6.67969
29.27	6.67969
29.275	6.67969
29.28	6.67969
29.285	6.67969
29.29	6.67969
29.295	6.67969
29.3	6.76758
29.305	6.76758
29.31	6.76758
29.315	6.76758
29.32	6.76758
29.325	6.76758
29.33	6.76758
29.335	6.76758
29.34	6.76758
29.345	6.85547
29.35	6.85547
29.355	6.85547
29.36	6.85547
29.365	6.85547
29.37	6.85547
29.375	6.85547
29.38	6.85547
29.385	6.85547
29.39	6.85547
29.395	6.85547
29.4	6.85547
29.405	6.85547
29.41	6.85547
29.415	6.85547
29.42	6.85547
29.425	6.85547
29.43	6.85547
29.435	6.85547
29.44	6.85547
29.445	6.85547
29.45	6.85547
29.455	6.85547
29.46	6.85547
29.465	6.85547
29.47	6.85547
29.475	6.85547
29.48	6.85547
29.485	6.85547
29.49	6.85547
29.495	6.85547
29.5	6.85547
29.505	6.85547
29.51	6.85547
29.515	6.85547
29.52	6.85547
29.525	6.85547
29.53	6.85547
29.535	6.85547
29.54	6.85547
29.545	6.85547
29.55	6.85547
29.555	6.85547
29.56	6.85547
29.565	6.85547
29.57	6.85547
29.575	6.85547
29.58	6.85547
29.585	6.85547
29.59	6.85547
29.595	6.85547
29.6	6.76758
29.605	6.76758
29.61	6.76758
29.615	6.76758
29.62	6.76758
29.625	6.76758
29.63	6.76758
29.635	6.67969
29.64	6.67969
29.645	6.67969
29.65	6.67969
29.655	6.67969
29.66	6.67969
29.665	6.67969
29.67	6.67969
29.675	6.67969
29.68	6.67969
29.685	6.5918
29.69	6.5918
29.695	6.5918
29.7	6.5918
29.705	6.5918
29.71	6.5918
29.715	6.5918
29.72	6.5918
29.725	6.5918
29.73	6.5918
29.735	6.5918
29.74	6.5918
29.745	6.5918
29.75	6.5918
29.755	6.5918
29.76	6.5918
29.765	6.5918
29.77	6.5918
29.775	6.5918
29.78	6.5918
29.785	6.5918
29.79	6.5918
29.795	6.5918
29.8	6.5918
29.805	6.5918
29.81	6.5918
29.815	6.5918
29.82	6.5918
29.825	6.5918
29.83	6.5918
29.835	6.5918
29.84	6.5918
29.845	6.5918
29.85	6.5918
29.855	6.5918
29.86	6.5918
29.865	6.5918
29.87	6.5918
29.875	6.5918
29.88	6.5918
29.885	6.5918
29.89	6.5918
29.895	6.5918
29.9	6.5918
29.905	6.5918
29.91	6.5918
29.915	6.5918
29.92	6.5918
29.925	6.5918
29.93	6.5918
29.935	6.5918
29.94	6.67969
29.945	6.67969
29.95	6.67969
29.955	6.67969
29.96	6.67969
29.965	6.67969
29.97	6.67969
29.975	6.67969
29.98	6.67969
29.985	6.67969
29.99	6.67969
29.995	6.67969
30	6.67969
30.005	6.67969
30.01	6.67969
30.015	6.67969
30.02	6.76758
30.025	6.76758
30.03	6.76758
30.035	6.76758
30.04	6.76758
30.045	6.76758
30.05	6.76758
30.055	6.76758
30.06	6.67969
30.065	6.67969
30.07	6.67969
30.075	6.67969
30.08	6.76758
30.085	6.76758
30.09	6.76758
30.095	6.76758
30.1	6.76758
30.105	6.76758
30.11	6.85547
30.115	6.85547
30.12	6.76758
30.125	6.76758
30.13	6.76758
30.135	6.76758
30.14	6.76758
30.145	6.76758
30.15	6.76758
30.155	6.85547
30.16	6.85547
30.165	6.85547
30.17	6.85547
30.175	6.85547
30.18	6.85547
30.185	6.85547
30.19	6.85547
30.195	6.85547
30.2	6.85547
30.205	6.94336
30.21	6.94336
30.215	7.03125
30.22	7.03125
30.225	7.03125
30.23	7.03125
30.235	7.03125
30.24	7.11914
30.245	7.11914
30.25	7.20703
30.255	7.20703
30.26	7.38281
30.265	7.38281
30.27	7.38281
30.275	7.55859
30.28	7.55859
30.285	7.64648
30.29	7.82227
30.295	7.82227
30.3	8.08594
30.305	8.08594
30.31	8.17383
30.315	8.4375
30.32	8.52539
30.325	8.61328
30.33	8.96484
30.335	9.05273
30.34	9.14063
30.345	9.49219
30.35	9.66797
30.355	9.75586
30.36	10.3711
30.365	10.5469
30.37	10.6348
30.375	11.25
30.38	11.4258
30.385	11.6016
30.39	12.1289
30.395	12.3047
30.4	12.9199
30.405	13.1836
30.41	13.3594
30.415	14.0625
30.42	14.2383
30.425	15.2051
30.43	15.4687
30.435	15.6445
30.44	16.3477
30.445	16.6113
30.45	16.7871
30.455	17.5781
30.46	17.7539
30.465	18.0176
30.47	18.8965
30.475	19.1602
30.48	19.3359
30.485	19.9512
30.49	20.127
30.495	20.3906
30.5	20.918
30.505	21.0937
30.51	21.6211
30.515	21.7969
30.52	21.9727
30.525	22.5879
30.53	22.7637
30.535	23.0273
30.54	23.2031
30.545	23.291
30.55	23.5547
30.555	23.6426
30.56	23.6426
30.565	23.9063
30.57	23.9063
30.575	23.9941
30.58	24.082
30.585	23.9941
30.59	24.082
30.595	23.9063
30.6	23.9063
30.605	23.6426
30.61	23.5547
30.615	23.2031
30.62	23.1152
30.625	22.6758
30.63	22.4121
30.635	22.3242
30.64	21.7969
30.645	21.709
30.65	21.4453
30.655	20.6543
30.66	20.4785
30.665	19.6875
30.67	19.4238
30.675	19.248
30.68	18.6328
30.685	18.3691
30.69	17.5781
30.695	17.3145
30.7	17.1387
30.705	16.5234
30.71	16.3477
30.715	16.1719
30.72	15.3809
30.725	15.1172
30.73	14.9414
30.735	14.3262
30.74	14.1504
30.745	13.9746
30.75	13.1836
30.755	13.0078
30.76	12.5684
30.765	12.3926
30.77	12.2168
30.775	11.6895
30.78	11.4258
30.785	10.9863
30.79	10.8105
30.795	10.7227
30.8	10.2832
30.805	10.1953
30.81	9.84375
30.815	9.75586
30.82	9.66797
30.825	9.22852
30.83	9.14063
30.835	8.61328
30.84	8.52539
30.845	8.4375
30.85	8.26172
30.855	8.17383
30.86	8.08594
30.865	7.73437
30.87	7.64648
30.875	7.55859
30.88	7.38281
30.885	7.38281
30.89	7.20703
30.895	6.94336
30.9	6.85547
30.905	6.76758
30.91	6.50391
30.915	6.41602
30.92	6.41602
30.925	6.15234
30.93	6.06445
30.935	5.97656
30.94	5.88867
30.945	5.80078
30.95	5.71289
30.955	5.36133
30.96	5.36133
30.965	5.27344
30.97	5.00977
30.975	4.92188
30.98	4.83398
30.985	4.6582
30.99	4.57031
30.995	4.48242
31	4.30664
31.005	4.21875
31.01	4.13086
31.015	3.95508
31.02	3.86719
31.025	3.60352
31.03	3.51563
31.035	3.42773
31.04	3.16406
31.045	3.07617
31.05	2.98828
31.055	2.8125
31.06	2.72461
31.065	2.46094
31.07	2.37305
31.075	2.28516
31.08	2.02148
31.085	1.93359
31.09	1.8457
31.095	1.58203
31.1	1.49414
31.105	1.40625
31.11	1.31836
31.115	1.23047
31.12	1.14258
31.125	0.966797
31.13	0.878906
31.135	0.527344
31.14	0.439453
31.145	0.439453
31.15	0.175781
31.155	0.0878906
31.16	-0.0878906
31.165	-0.175781
31.17	-0.175781
31.175	-0.351562
31.18	-0.439453
31.185	-0.527344
31.19	-0.703125
31.195	-0.791016
31.2	-0.791016
31.205	-1.05469
31.21	-1.05469
31.215	-1.14258
31.22	-1.31836
31.225	-1.31836
31.23	-1.40625
31.235	-1.49414
31.24	-1.49414
31.245	-1.58203
31.25	-1.75781
31.255	-1.8457
31.26	-1.93359
31.265	-2.02148
31.27	-2.02148
31.275	-2.19727
31.28	-2.19727
31.285	-2.28516
31.29	-2.37305
31.295	-2.37305
31.3	-2.37305
31.305	-2.46094
31.31	-2.46094
31.315	-2.63672
31.32	-2.63672
31.325	-2.63672
31.33	-2.72461
31.335	-2.72461
31.34	-2.8125
31.345	-2.8125
31.35	-2.8125
31.355	-2.90039
31.36	-2.90039
31.365	-2.98828
31.37	-2.98828
31.375	-2.98828
31.38	-2.98828
31.385	-3.07617
31.39	-3.07617
31.395	-3.07617
31.4	-3.07617
31.405	-3.07617
31.41	-3.16406
31.415	-3.16406
31.42	-3.16406
31.425	-3.16406
31.43	-3.16406
31.435	-3.16406
31.44	-3.16406
31.445	-3.16406
31.45	-3.16406
31.455	-3.16406
31.46	-3.16406
31.465	-3.16406
31.47	-3.16406
31.475	-3.16406
31.48	-3.16406
31.485	-3.16406
31.49	-3.16406
31.495	-3.16406
31.5	-3.16406
31.505	-3.16406
31.51	-3.16406
31.515	-3.07617
31.52	-3.07617
31.525	-3.07617
31.53	-3.07617
31.535	-3.07617
