time (s) - Measured	Pitch (deg) - Measured
0	0
0.005	0
0.01	0
0.015	-0.0878906
0.02	-0.0878906
0.025	-0.175781
0.03	-0.175781
0.035	-0.175781
0.04	-0.263672
0.045	-0.263672
0.05	-0.351562
0.055	-0.351562
0.06	-0.351562
0.065	-0.439453
0.07	-0.439453
0.075	-0.439453
0.08	-0.527344
0.085	-0.527344
0.09	-0.527344
0.095	-0.615234
0.1	-0.615234
0.105	-0.615234
0.11	-0.703125
0.115	-0.703125
0.12	-0.791016
0.125	-0.878906
0.13	-0.878906
0.135	-1.05469
0.14	-1.05469
0.145	-1.14258
0.15	-1.14258
0.155	-1.23047
0.16	-1.31836
0.165	-1.31836
0.17	-1.31836
0.175	-1.40625
0.18	-1.49414
0.185	-1.49414
0.19	-1.58203
0.195	-1.58203
0.2	-1.75781
0.205	-1.75781
0.21	-1.8457
0.215	-2.02148
0.22	-2.10938
0.225	-2.10938
0.23	-2.19727
0.235	-2.28516
0.24	-2.37305
0.245	-2.46094
0.25	-2.54883
0.255	-2.54883
0.26	-2.63672
0.265	-2.72461
0.27	-2.90039
0.275	-2.98828
0.28	-3.07617
0.285	-3.16406
0.29	-3.16406
0.295	-3.33984
0.3	-3.42773
0.305	-3.42773
0.31	-3.51563
0.315	-3.60352
0.32	-3.69141
0.325	-3.7793
0.33	-3.7793
0.335	-3.86719
0.34	-3.95508
0.345	-4.04297
0.35	-4.13086
0.355	-4.13086
0.36	-4.21875
0.365	-4.21875
0.37	-4.30664
0.375	-4.30664
0.38	-4.39453
0.385	-4.39453
0.39	-4.48242
0.395	-4.48242
0.4	-4.48242
0.405	-4.57031
0.41	-4.57031
0.415	-4.57031
0.42	-4.57031
0.425	-4.57031
0.43	-4.6582
0.435	-4.57031
0.44	-4.6582
0.445	-4.6582
0.45	-4.6582
0.455	-4.57031
0.46	-4.6582
0.465	-4.57031
0.47	-4.57031
0.475	-4.6582
0.48	-4.57031
0.485	-4.57031
0.49	-4.57031
0.495	-4.57031
0.5	-4.57031
0.505	-4.48242
0.51	-4.48242
0.515	-4.48242
0.52	-4.48242
0.525	-4.48242
0.53	-4.48242
0.535	-4.39453
0.54	-4.39453
0.545	-4.48242
0.55	-4.39453
0.555	-4.39453
0.56	-4.48242
0.565	-4.48242
0.57	-4.39453
0.575	-4.39453
0.58	-4.39453
0.585	-4.30664
0.59	-4.30664
0.595	-4.30664
0.6	-4.30664
0.605	-4.30664
0.61	-4.30664
0.615	-4.30664
0.62	-4.30664
0.625	-4.30664
0.63	-4.30664
0.635	-4.30664
0.64	-4.30664
0.645	-4.30664
0.65	-4.30664
0.655	-4.30664
0.66	-4.30664
0.665	-4.30664
0.67	-4.30664
0.675	-4.39453
0.68	-4.39453
0.685	-4.39453
0.69	-4.39453
0.695	-4.48242
0.7	-4.48242
0.705	-4.48242
0.71	-4.48242
0.715	-4.48242
0.72	-4.48242
0.725	-4.48242
0.73	-4.48242
0.735	-4.48242
0.74	-4.57031
0.745	-4.6582
0.75	-4.6582
0.755	-4.6582
0.76	-4.6582
0.765	-4.74609
0.77	-4.74609
0.775	-4.74609
0.78	-4.83398
0.785	-4.83398
0.79	-4.92188
0.795	-4.92188
0.8	-4.92188
0.805	-5.00977
0.81	-5.09766
0.815	-5.09766
0.82	-5.18555
0.825	-5.27344
0.83	-5.27344
0.835	-5.36133
0.84	-5.36133
0.845	-5.36133
0.85	-5.44922
0.855	-5.44922
0.86	-5.44922
0.865	-5.53711
0.87	-5.625
0.875	-5.625
0.88	-5.625
0.885	-5.71289
0.89	-5.80078
0.895	-5.88867
0.9	-5.88867
0.905	-5.97656
0.91	-6.06445
0.915	-6.06445
0.92	-6.06445
0.925	-6.15234
0.93	-6.15234
0.935	-6.24023
0.94	-6.32812
0.945	-6.32812
0.95	-6.41602
0.955	-6.50391
0.96	-6.5918
0.965	-6.5918
0.97	-6.76758
0.975	-6.76758
0.98	-6.85547
0.985	-6.94336
0.99	-6.94336
0.995	-7.03125
1	-7.11914
1.005	-7.11914
1.01	-7.20703
1.015	-7.29492
1.02	-7.29492
1.025	-7.38281
1.03	-7.4707
1.035	-7.64648
1.04	-7.73437
1.045	-7.82227
1.05	-7.91016
1.055	-7.99805
1.06	-7.99805
1.065	-8.08594
1.07	-8.17383
1.075	-8.17383
1.08	-8.17383
1.085	-8.34961
1.09	-8.4375
1.095	-8.4375
1.1	-8.52539
1.105	-8.52539
1.11	-8.61328
1.115	-8.70117
1.12	-8.70117
1.125	-8.78906
1.13	-8.87695
1.135	-8.87695
1.14	-8.87695
1.145	-8.87695
1.15	-8.96484
1.155	-8.96484
1.16	-9.05273
1.165	-9.05273
1.17	-9.14063
1.175	-9.14063
1.18	-9.22852
1.185	-9.22852
1.19	-9.31641
1.195	-9.31641
1.2	-9.4043
1.205	-9.4043
1.21	-9.4043
1.215	-9.4043
1.22	-9.49219
1.225	-9.49219
1.23	-9.4043
1.235	-9.49219
1.24	-9.49219
1.245	-9.49219
1.25	-9.49219
1.255	-9.58008
1.26	-9.58008
1.265	-9.58008
1.27	-9.58008
1.275	-9.58008
1.28	-9.58008
1.285	-9.58008
1.29	-9.58008
1.295	-9.58008
1.3	-9.58008
1.305	-9.49219
1.31	-9.49219
1.315	-9.49219
1.32	-9.4043
1.325	-9.4043
1.33	-9.31641
1.335	-9.31641
1.34	-9.14063
1.345	-9.14063
1.35	-8.87695
1.355	-8.78906
1.36	-8.61328
1.365	-8.61328
1.37	-8.52539
1.375	-8.34961
1.38	-8.26172
1.385	-8.17383
1.39	-7.99805
1.395	-7.91016
1.4	-7.82227
1.405	-7.55859
1.41	-7.4707
1.415	-7.38281
1.42	-7.03125
1.425	-6.94336
1.43	-6.85547
1.435	-6.5918
1.44	-6.50391
1.445	-6.41602
1.45	-6.15234
1.455	-6.06445
1.46	-5.88867
1.465	-5.53711
1.47	-5.36133
1.475	-5.27344
1.48	-4.83398
1.485	-4.74609
1.49	-4.6582
1.495	-4.21875
1.5	-4.13086
1.505	-3.86719
1.51	-3.69141
1.515	-3.60352
1.52	-3.16406
1.525	-2.98828
1.53	-2.90039
1.535	-2.46094
1.54	-2.37305
1.545	-2.19727
1.55	-1.8457
1.555	-1.66992
1.56	-1.31836
1.565	-1.23047
1.57	-0.878906
1.575	-0.703125
1.58	-0.615234
1.585	-0.263672
1.59	-0.175781
1.595	0
1.6	0.263672
1.605	0.351562
1.61	0.439453
1.615	0.703125
1.62	0.878906
1.625	0.966797
1.63	1.23047
1.635	1.31836
1.64	1.40625
1.645	1.58203
1.65	1.66992
1.655	1.75781
1.66	2.02148
1.665	2.02148
1.67	2.10938
1.675	2.19727
1.68	2.28516
1.685	2.37305
1.69	2.46094
1.695	2.54883
1.7	2.63672
1.705	2.72461
1.71	2.8125
1.715	2.98828
1.72	2.98828
1.725	3.07617
1.73	3.25195
1.735	3.33984
1.74	3.33984
1.745	3.42773
1.75	3.51563
1.755	3.60352
1.76	3.69141
1.765	3.7793
1.77	3.86719
1.775	3.95508
1.78	3.95508
1.785	4.13086
1.79	4.21875
1.795	4.21875
1.8	4.30664
1.805	4.39453
1.81	4.39453
1.815	4.48242
1.82	4.57031
1.825	4.57031
1.83	4.6582
1.835	4.74609
1.84	4.74609
1.845	4.92188
1.85	5.00977
1.855	5.09766
1.86	5.27344
1.865	5.27344
1.87	5.44922
1.875	5.53711
1.88	5.53711
1.885	5.625
1.89	5.71289
1.895	5.80078
1.9	5.80078
1.905	5.88867
1.91	6.06445
1.915	6.06445
1.92	6.15234
1.925	6.32812
1.93	6.41602
1.935	6.41602
1.94	6.5918
1.945	6.5918
1.95	6.67969
1.955	6.76758
1.96	6.76758
1.965	6.94336
1.97	7.03125
1.975	7.11914
1.98	7.20703
1.985	7.29492
1.99	7.38281
1.995	7.4707
2	7.55859
2.005	7.55859
2.01	7.73437
2.015	7.73437
2.02	7.82227
2.025	7.91016
2.03	7.91016
2.035	8.08594
2.04	8.08594
2.045	8.17383
2.05	8.26172
2.055	8.34961
2.06	8.4375
2.065	8.52539
2.07	8.52539
2.075	8.61328
2.08	8.78906
2.085	8.87695
2.09	8.87695
2.095	8.96484
2.1	8.96484
2.105	9.05273
2.11	9.14063
2.115	9.22852
2.12	9.22852
2.125	9.4043
2.13	9.4043
2.135	9.49219
2.14	9.58008
2.145	9.58008
2.15	9.75586
2.155	9.75586
2.16	9.75586
2.165	9.84375
2.17	9.93164
2.175	9.93164
2.18	10.0195
2.185	10.0195
2.19	10.1074
2.195	10.1953
2.2	10.1953
2.205	10.1953
2.21	10.2832
2.215	10.2832
2.22	10.459
2.225	10.459
2.23	10.459
2.235	10.5469
2.24	10.5469
2.245	10.6348
2.25	10.6348
2.255	10.7227
2.26	10.7227
2.265	10.8105
2.27	10.8105
2.275	10.8105
2.28	10.8984
2.285	10.8984
2.29	10.8984
2.295	10.9863
2.3	10.9863
2.305	11.0742
2.31	10.9863
2.315	11.1621
2.32	11.0742
2.325	11.1621
2.33	11.1621
2.335	11.1621
2.34	11.1621
2.345	11.25
2.35	11.25
2.355	11.25
2.36	11.3379
2.365	11.3379
2.37	11.3379
2.375	11.4258
2.38	11.4258
2.385	11.4258
2.39	11.3379
2.395	11.4258
2.4	11.3379
2.405	11.4258
2.41	11.4258
2.415	11.4258
2.42	11.4258
2.425	11.4258
2.43	11.4258
2.435	11.5137
2.44	11.5137
2.445	11.5137
2.45	11.5137
2.455	11.6016
2.46	11.5137
2.465	11.5137
2.47	11.5137
2.475	11.5137
2.48	11.5137
2.485	11.5137
2.49	11.5137
2.495	11.5137
2.5	11.5137
2.505	11.6016
2.51	11.6016
2.515	11.6016
2.52	11.6016
2.525	11.6016
2.53	11.6016
2.535	11.6016
2.54	11.5137
2.545	11.6016
2.55	11.5137
2.555	11.5137
2.56	11.5137
2.565	11.5137
2.57	11.6016
2.575	11.6016
2.58	11.6016
2.585	11.6016
2.59	11.6016
2.595	11.6016
2.6	11.6016
2.605	11.6016
2.61	11.6016
2.615	11.6016
2.62	11.6016
2.625	11.6016
2.63	11.5137
2.635	11.5137
2.64	11.6016
2.645	11.5137
2.65	11.5137
2.655	11.5137
2.66	11.5137
2.665	11.5137
2.67	11.6016
2.675	11.5137
2.68	11.5137
2.685	11.6016
2.69	11.5137
2.695	11.6016
2.7	11.6016
2.705	11.5137
2.71	11.5137
2.715	11.5137
2.72	11.5137
2.725	11.5137
2.73	11.5137
2.735	11.5137
2.74	11.5137
2.745	11.5137
2.75	11.4258
2.755	11.4258
2.76	11.5137
2.765	11.4258
2.77	11.5137
2.775	11.5137
2.78	11.4258
2.785	11.4258
2.79	11.4258
2.795	11.4258
2.8	11.4258
2.805	11.4258
2.81	11.3379
2.815	11.3379
2.82	11.3379
2.825	11.3379
2.83	11.3379
2.835	11.25
2.84	11.25
2.845	11.25
2.85	11.25
2.855	11.1621
2.86	11.1621
2.865	11.1621
2.87	11.1621
2.875	11.1621
2.88	11.1621
2.885	11.1621
2.89	11.0742
2.895	11.0742
2.9	11.0742
2.905	11.0742
2.91	10.9863
2.915	10.9863
2.92	10.9863
2.925	10.9863
2.93	10.9863
2.935	10.9863
2.94	10.9863
2.945	10.8984
2.95	10.8984
2.955	10.8984
2.96	10.8984
2.965	10.8984
2.97	10.8105
2.975	10.8105
2.98	10.8105
2.985	10.8105
2.99	10.8105
2.995	10.7227
3	10.7227
3.005	10.7227
3.01	10.7227
3.015	10.6348
3.02	10.6348
3.025	10.6348
3.03	10.6348
3.035	10.6348
3.04	10.6348
3.045	10.6348
3.05	10.6348
3.055	10.6348
3.06	10.6348
3.065	10.5469
3.07	10.6348
3.075	10.5469
3.08	10.5469
3.085	10.5469
3.09	10.5469
3.095	10.5469
3.1	10.5469
3.105	10.459
3.11	10.459
3.115	10.459
3.12	10.459
3.125	10.459
3.13	10.5469
3.135	10.459
3.14	10.459
3.145	10.459
3.15	10.459
3.155	10.459
3.16	10.459
3.165	10.459
3.17	10.459
3.175	10.459
3.18	10.459
3.185	10.459
3.19	10.459
3.195	10.3711
3.2	10.3711
3.205	10.3711
3.21	10.3711
3.215	10.3711
3.22	10.3711
3.225	10.3711
3.23	10.3711
3.235	10.3711
3.24	10.3711
3.245	10.3711
3.25	10.3711
3.255	10.3711
3.26	10.3711
3.265	10.3711
3.27	10.2832
3.275	10.2832
3.28	10.2832
3.285	10.2832
3.29	10.2832
3.295	10.2832
3.3	10.2832
3.305	10.2832
3.31	10.1953
3.315	10.1953
3.32	10.1953
3.325	10.1953
3.33	10.1953
3.335	10.1953
3.34	10.1953
3.345	10.1074
3.35	10.1074
3.355	10.1074
3.36	10.1074
3.365	10.1074
3.37	10.1074
3.375	10.1074
3.38	10.0195
3.385	10.0195
3.39	10.0195
3.395	10.0195
3.4	10.0195
3.405	10.0195
3.41	10.0195
3.415	9.93164
3.42	9.93164
3.425	9.93164
3.43	9.93164
3.435	9.93164
3.44	9.93164
3.445	9.84375
3.45	9.84375
3.455	9.84375
3.46	9.84375
3.465	9.75586
3.47	9.75586
3.475	9.75586
3.48	9.75586
3.485	9.75586
3.49	9.66797
3.495	9.66797
3.5	9.66797
3.505	9.58008
3.51	9.66797
3.515	9.58008
3.52	9.58008
3.525	9.58008
3.53	9.49219
3.535	9.49219
3.54	9.49219
3.545	9.4043
3.55	9.4043
3.555	9.4043
3.56	9.4043
3.565	9.31641
3.57	9.31641
3.575	9.31641
3.58	9.31641
3.585	9.31641
3.59	9.31641
3.595	9.31641
3.6	9.22852
3.605	9.22852
3.61	9.22852
3.615	9.22852
3.62	9.14063
3.625	9.14063
3.63	9.14063
3.635	9.14063
3.64	9.14063
3.645	9.05273
3.65	9.05273
3.655	9.05273
3.66	9.05273
3.665	9.05273
3.67	9.05273
3.675	9.05273
3.68	9.05273
3.685	9.05273
3.69	9.05273
3.695	9.05273
3.7	9.05273
3.705	8.96484
3.71	8.96484
3.715	8.96484
3.72	8.96484
3.725	8.96484
3.73	8.87695
3.735	8.87695
3.74	8.87695
3.745	8.87695
3.75	8.87695
3.755	8.87695
3.76	8.87695
3.765	8.87695
3.77	8.87695
3.775	8.87695
3.78	8.87695
3.785	8.87695
3.79	8.87695
3.795	8.87695
3.8	8.78906
3.805	8.78906
3.81	8.78906
3.815	8.78906
3.82	8.78906
3.825	8.78906
3.83	8.78906
3.835	8.70117
3.84	8.70117
3.845	8.70117
3.85	8.70117
3.855	8.70117
3.86	8.70117
3.865	8.70117
3.87	8.70117
3.875	8.70117
3.88	8.70117
3.885	8.70117
3.89	8.70117
3.895	8.70117
3.9	8.70117
3.905	8.70117
3.91	8.61328
3.915	8.61328
3.92	8.61328
3.925	8.61328
3.93	8.61328
3.935	8.61328
3.94	8.52539
3.945	8.52539
3.95	8.52539
3.955	8.52539
3.96	8.52539
3.965	8.52539
3.97	8.52539
3.975	8.52539
3.98	8.52539
3.985	8.52539
3.99	8.4375
3.995	8.52539
4	8.4375
4.005	8.4375
4.01	8.34961
4.015	8.34961
4.02	8.34961
4.025	8.34961
4.03	8.34961
4.035	8.34961
4.04	8.34961
4.045	8.34961
4.05	8.34961
4.055	8.34961
4.06	8.26172
4.065	8.34961
4.07	8.26172
4.075	8.26172
4.08	8.26172
4.085	8.26172
4.09	8.26172
4.095	8.17383
4.1	8.17383
4.105	8.17383
4.11	8.17383
4.115	8.17383
4.12	8.17383
4.125	8.17383
4.13	8.17383
4.135	8.17383
4.14	8.17383
4.145	8.08594
4.15	8.08594
4.155	8.08594
4.16	8.08594
4.165	8.08594
4.17	8.08594
4.175	8.08594
4.18	8.08594
4.185	8.08594
4.19	7.99805
4.195	7.99805
4.2	7.99805
4.205	7.99805
4.21	7.99805
4.215	7.99805
4.22	7.99805
4.225	7.99805
4.23	7.99805
4.235	7.99805
4.24	7.99805
4.245	7.91016
4.25	7.91016
4.255	7.91016
4.26	7.91016
4.265	7.91016
4.27	7.91016
4.275	7.82227
4.28	7.82227
4.285	7.82227
4.29	7.82227
4.295	7.82227
4.3	7.82227
4.305	7.82227
4.31	7.82227
4.315	7.82227
4.32	7.82227
4.325	7.82227
4.33	7.82227
4.335	7.73437
4.34	7.73437
4.345	7.73437
4.35	7.73437
4.355	7.73437
4.36	7.73437
4.365	7.73437
4.37	7.64648
4.375	7.64648
4.38	7.64648
4.385	7.64648
4.39	7.64648
4.395	7.64648
4.4	7.64648
4.405	7.64648
4.41	7.55859
4.415	7.55859
4.42	7.55859
4.425	7.55859
4.43	7.55859
4.435	7.55859
4.44	7.55859
4.445	7.55859
4.45	7.55859
4.455	7.55859
4.46	7.55859
4.465	7.4707
4.47	7.4707
4.475	7.4707
4.48	7.4707
4.485	7.4707
4.49	7.4707
4.495	7.4707
4.5	7.4707
4.505	7.4707
4.51	7.38281
4.515	7.38281
4.52	7.38281
4.525	7.38281
4.53	7.38281
4.535	7.38281
4.54	7.38281
4.545	7.38281
4.55	7.29492
4.555	7.29492
4.56	7.29492
4.565	7.29492
4.57	7.29492
4.575	7.29492
4.58	7.29492
4.585	7.20703
4.59	7.20703
4.595	7.20703
4.6	7.20703
4.605	7.20703
4.61	7.20703
4.615	7.20703
4.62	7.20703
4.625	7.20703
4.63	7.20703
4.635	7.11914
4.64	7.11914
4.645	7.11914
4.65	7.11914
4.655	7.11914
4.66	7.11914
4.665	7.11914
4.67	7.11914
4.675	7.03125
4.68	7.03125
4.685	7.03125
4.69	7.03125
4.695	7.03125
4.7	7.03125
4.705	7.03125
4.71	6.94336
4.715	6.94336
4.72	6.94336
4.725	6.94336
4.73	6.94336
4.735	6.94336
4.74	6.94336
4.745	6.94336
4.75	6.94336
4.755	6.94336
4.76	6.94336
4.765	6.94336
4.77	6.94336
4.775	6.94336
4.78	6.94336
4.785	6.94336
4.79	6.94336
4.795	6.85547
4.8	6.85547
4.805	6.85547
4.81	6.85547
4.815	6.85547
4.82	6.85547
4.825	6.85547
4.83	6.85547
4.835	6.85547
4.84	6.85547
4.845	6.85547
4.85	6.85547
4.855	6.85547
4.86	6.85547
4.865	6.85547
4.87	6.85547
4.875	6.76758
4.88	6.76758
4.885	6.76758
4.89	6.76758
4.895	6.76758
4.9	6.76758
4.905	6.76758
4.91	6.76758
4.915	6.76758
4.92	6.76758
4.925	6.76758
4.93	6.76758
4.935	6.76758
4.94	6.76758
4.945	6.76758
4.95	6.76758
4.955	6.85547
4.96	6.76758
4.965	6.76758
4.97	6.76758
4.975	6.76758
4.98	6.76758
4.985	6.85547
4.99	6.85547
4.995	6.85547
5	6.85547
5.005	6.85547
5.01	6.76758
5.015	6.76758
5.02	6.76758
5.025	6.76758
5.03	6.76758
5.035	6.76758
5.04	6.76758
5.045	6.85547
5.05	6.85547
5.055	6.85547
5.06	6.85547
5.065	6.85547
5.07	6.85547
5.075	6.85547
5.08	6.85547
5.085	6.85547
5.09	6.85547
5.095	6.85547
5.1	6.85547
5.105	6.85547
5.11	6.85547
5.115	6.94336
5.12	6.94336
5.125	6.94336
5.13	6.94336
5.135	6.94336
5.14	6.94336
5.145	6.94336
5.15	6.94336
5.155	6.94336
5.16	6.94336
5.165	6.94336
5.17	6.94336
5.175	6.94336
5.18	6.94336
5.185	6.94336
5.19	6.94336
5.195	6.94336
5.2	7.03125
5.205	6.94336
5.21	7.03125
5.215	6.94336
5.22	7.03125
5.225	6.94336
5.23	6.94336
5.235	6.94336
5.24	6.94336
5.245	6.94336
5.25	6.85547
5.255	6.94336
5.26	6.85547
5.265	6.94336
5.27	6.85547
5.275	6.85547
5.28	6.85547
5.285	6.85547
5.29	6.76758
5.295	6.76758
5.3	6.76758
5.305	6.76758
5.31	6.76758
5.315	6.76758
5.32	6.67969
5.325	6.67969
5.33	6.67969
5.335	6.67969
5.34	6.67969
5.345	6.5918
5.35	6.5918
5.355	6.5918
5.36	6.5918
5.365	6.5918
5.37	6.5918
5.375	6.5918
5.38	6.50391
5.385	6.50391
5.39	6.50391
5.395	6.41602
5.4	6.41602
5.405	6.41602
5.41	6.41602
5.415	6.41602
5.42	6.41602
5.425	6.41602
5.43	6.41602
5.435	6.41602
5.44	6.41602
5.445	6.41602
5.45	6.41602
5.455	6.41602
5.46	6.32812
5.465	6.32812
5.47	6.24023
5.475	6.24023
5.48	6.24023
5.485	6.24023
5.49	6.24023
5.495	6.24023
5.5	6.24023
5.505	6.24023
5.51	6.15234
5.515	6.24023
5.52	6.15234
5.525	6.15234
5.53	6.15234
5.535	6.15234
5.54	6.06445
5.545	5.97656
5.55	5.97656
5.555	5.97656
5.56	5.88867
5.565	5.97656
5.57	5.88867
5.575	5.88867
5.58	5.88867
5.585	5.88867
5.59	5.80078
5.595	5.88867
5.6	5.80078
5.605	5.71289
5.61	5.71289
5.615	5.625
5.62	5.625
5.625	5.53711
5.63	5.53711
5.635	5.53711
5.64	5.53711
5.645	5.44922
5.65	5.44922
5.655	5.36133
5.66	5.27344
5.665	5.27344
5.67	5.18555
5.675	5.09766
5.68	5.09766
5.685	5.09766
5.69	5.00977
5.695	5.00977
5.7	5.00977
5.705	4.83398
5.71	4.83398
5.715	4.83398
5.72	4.6582
5.725	4.6582
5.73	4.57031
5.735	4.57031
5.74	4.48242
5.745	4.39453
5.75	4.39453
5.755	4.39453
5.76	4.21875
5.765	4.21875
5.77	4.21875
5.775	4.13086
5.78	4.04297
5.785	4.04297
5.79	3.95508
5.795	3.86719
5.8	3.86719
5.805	3.7793
5.81	3.7793
5.815	3.7793
5.82	3.69141
5.825	3.69141
5.83	3.69141
5.835	3.60352
5.84	3.60352
5.845	3.60352
5.85	3.51563
5.855	3.51563
5.86	3.51563
5.865	3.42773
5.87	3.42773
5.875	3.42773
5.88	3.42773
5.885	3.33984
5.89	3.42773
5.895	3.33984
5.9	3.33984
5.905	3.33984
5.91	3.33984
5.915	3.33984
5.92	3.33984
5.925	3.33984
5.93	3.33984
5.935	3.25195
5.94	3.25195
5.945	3.33984
5.95	3.33984
5.955	3.33984
5.96	3.33984
5.965	3.42773
5.97	3.42773
5.975	3.51563
5.98	3.51563
5.985	3.51563
5.99	3.51563
5.995	3.60352
6	3.60352
6.005	3.60352
6.01	3.69141
6.015	3.69141
6.02	3.7793
6.025	3.7793
6.03	3.7793
6.035	3.95508
6.04	3.95508
6.045	4.04297
6.05	4.13086
6.055	4.21875
6.06	4.21875
6.065	4.30664
6.07	4.39453
6.075	4.48242
6.08	4.57031
6.085	4.6582
6.09	4.6582
6.095	4.74609
6.1	4.83398
6.105	4.92188
6.11	5.00977
6.115	5.00977
6.12	5.09766
6.125	5.18555
6.13	5.36133
6.135	5.36133
6.14	5.53711
6.145	5.53711
6.15	5.625
6.155	5.80078
6.16	5.88867
6.165	6.06445
6.17	6.15234
6.175	6.24023
6.18	6.32812
6.185	6.41602
6.19	6.5918
6.195	6.67969
6.2	6.76758
6.205	6.85547
6.21	7.03125
6.215	7.11914
6.22	7.20703
6.225	7.29492
6.23	7.29492
6.235	7.38281
6.24	7.38281
6.245	7.4707
6.25	7.4707
6.255	7.55859
6.26	7.55859
6.265	7.55859
6.27	7.64648
6.275	7.64648
6.28	7.64648
6.285	7.73437
6.29	7.73437
6.295	7.82227
6.3	7.82227
6.305	7.82227
6.31	7.91016
6.315	7.91016
6.32	7.91016
6.325	7.91016
6.33	7.99805
6.335	7.99805
6.34	7.99805
6.345	7.99805
6.35	7.99805
6.355	7.99805
6.36	7.99805
6.365	7.99805
6.37	8.08594
6.375	8.08594
6.38	8.08594
6.385	8.08594
6.39	8.08594
6.395	8.08594
6.4	8.08594
6.405	8.08594
6.41	8.08594
6.415	8.08594
6.42	8.08594
6.425	8.08594
6.43	8.08594
6.435	8.08594
6.44	8.08594
6.445	8.08594
6.45	8.08594
6.455	8.08594
6.46	8.08594
6.465	8.08594
6.47	8.08594
6.475	8.08594
6.48	7.99805
6.485	7.99805
6.49	7.99805
6.495	7.99805
6.5	7.99805
6.505	7.99805
6.51	7.99805
6.515	7.99805
6.52	7.99805
6.525	7.99805
6.53	7.99805
6.535	7.99805
6.54	7.99805
6.545	7.99805
6.55	7.99805
6.555	7.99805
6.56	7.99805
6.565	7.99805
6.57	7.99805
6.575	7.99805
6.58	7.99805
6.585	7.99805
6.59	7.99805
6.595	7.99805
6.6	8.08594
6.605	7.99805
6.61	8.08594
6.615	8.08594
6.62	8.08594
6.625	8.08594
6.63	8.08594
6.635	8.08594
6.64	8.08594
6.645	8.17383
6.65	8.17383
6.655	8.17383
6.66	8.17383
6.665	8.17383
6.67	8.17383
6.675	8.17383
6.68	8.26172
6.685	8.26172
6.69	8.26172
6.695	8.26172
6.7	8.34961
6.705	8.34961
6.71	8.34961
6.715	8.34961
6.72	8.34961
6.725	8.34961
6.73	8.34961
6.735	8.34961
6.74	8.4375
6.745	8.4375
6.75	8.4375
6.755	8.4375
6.76	8.52539
6.765	8.52539
6.77	8.52539
6.775	8.52539
6.78	8.52539
6.785	8.61328
6.79	8.61328
6.795	8.61328
6.8	8.61328
6.805	8.61328
6.81	8.61328
6.815	8.61328
6.82	8.61328
6.825	8.70117
6.83	8.70117
6.835	8.70117
6.84	8.70117
6.845	8.70117
6.85	8.70117
6.855	8.70117
6.86	8.78906
6.865	8.78906
6.87	8.78906
6.875	8.78906
6.88	8.78906
6.885	8.87695
6.89	8.87695
6.895	8.78906
6.9	8.87695
6.905	8.87695
6.91	8.87695
6.915	8.87695
6.92	8.87695
6.925	8.87695
6.93	8.87695
6.935	8.87695
6.94	8.87695
6.945	8.87695
6.95	8.87695
6.955	8.87695
6.96	8.87695
6.965	8.87695
6.97	8.87695
6.975	8.87695
6.98	8.87695
6.985	8.87695
6.99	8.87695
6.995	8.87695
7	8.87695
7.005	8.78906
7.01	8.78906
7.015	8.78906
7.02	8.78906
7.025	8.78906
7.03	8.78906
7.035	8.78906
7.04	8.78906
7.045	8.78906
7.05	8.78906
7.055	8.78906
7.06	8.70117
7.065	8.70117
7.07	8.70117
7.075	8.70117
7.08	8.70117
7.085	8.70117
7.09	8.70117
7.095	8.61328
7.1	8.61328
7.105	8.61328
7.11	8.61328
7.115	8.61328
7.12	8.52539
7.125	8.52539
7.13	8.52539
7.135	8.52539
7.14	8.52539
7.145	8.52539
7.15	8.52539
7.155	8.4375
7.16	8.4375
7.165	8.4375
7.17	8.4375
7.175	8.34961
7.18	8.34961
7.185	8.34961
7.19	8.34961
7.195	8.34961
7.2	8.26172
7.205	8.26172
7.21	8.26172
7.215	8.26172
7.22	8.26172
7.225	8.26172
7.23	8.17383
7.235	8.17383
7.24	8.17383
7.245	8.17383
7.25	8.17383
7.255	8.17383
7.26	8.17383
7.265	8.08594
7.27	8.08594
7.275	8.08594
7.28	8.08594
7.285	8.08594
7.29	7.99805
7.295	7.99805
7.3	7.99805
7.305	7.99805
7.31	7.99805
7.315	7.99805
7.32	7.99805
7.325	7.91016
7.33	7.91016
7.335	7.91016
7.34	7.91016
7.345	7.91016
7.35	7.91016
7.355	7.82227
7.36	7.82227
7.365	7.82227
7.37	7.82227
7.375	7.82227
7.38	7.82227
7.385	7.82227
7.39	7.82227
7.395	7.73437
7.4	7.73437
7.405	7.73437
7.41	7.73437
7.415	7.73437
7.42	7.73437
7.425	7.73437
7.43	7.73437
7.435	7.64648
7.44	7.64648
7.445	7.64648
7.45	7.64648
7.455	7.64648
7.46	7.64648
7.465	7.64648
7.47	7.64648
7.475	7.64648
7.48	7.64648
7.485	7.64648
7.49	7.64648
7.495	7.55859
7.5	7.55859
7.505	7.55859
7.51	7.55859
7.515	7.55859
7.52	7.55859
7.525	7.55859
7.53	7.55859
7.535	7.55859
7.54	7.55859
7.545	7.55859
7.55	7.55859
7.555	7.55859
7.56	7.55859
7.565	7.4707
7.57	7.4707
7.575	7.4707
7.58	7.4707
7.585	7.4707
7.59	7.4707
7.595	7.4707
7.6	7.4707
7.605	7.4707
7.61	7.4707
7.615	7.4707
7.62	7.4707
7.625	7.4707
7.63	7.4707
7.635	7.4707
7.64	7.4707
7.645	7.38281
7.65	7.4707
7.655	7.38281
7.66	7.4707
7.665	7.38281
7.67	7.38281
7.675	7.38281
7.68	7.38281
7.685	7.38281
7.69	7.38281
7.695	7.38281
7.7	7.38281
7.705	7.38281
7.71	7.38281
7.715	7.38281
7.72	7.38281
7.725	7.38281
7.73	7.38281
7.735	7.38281
7.74	7.38281
7.745	7.38281
7.75	7.38281
7.755	7.38281
7.76	7.38281
7.765	7.38281
7.77	7.38281
7.775	7.38281
7.78	7.38281
7.785	7.38281
7.79	7.38281
7.795	7.29492
7.8	7.29492
7.805	7.29492
7.81	7.29492
7.815	7.29492
7.82	7.29492
7.825	7.29492
7.83	7.29492
7.835	7.29492
7.84	7.29492
7.845	7.29492
7.85	7.29492
7.855	7.29492
7.86	7.29492
7.865	7.29492
7.87	7.29492
7.875	7.20703
7.88	7.20703
7.885	7.20703
7.89	7.20703
7.895	7.20703
7.9	7.20703
7.905	7.20703
7.91	7.20703
7.915	7.20703
7.92	7.11914
7.925	7.20703
7.93	7.20703
7.935	7.11914
7.94	7.11914
7.945	7.11914
7.95	7.11914
7.955	7.11914
7.96	7.11914
7.965	7.11914
7.97	7.11914
7.975	7.11914
7.98	7.11914
7.985	7.11914
7.99	7.11914
7.995	7.11914
8	7.03125
8.005	7.03125
8.01	7.11914
8.015	7.03125
8.02	7.03125
8.025	7.03125
8.03	7.03125
8.035	7.03125
8.04	7.03125
8.045	7.03125
8.05	7.03125
8.055	7.03125
8.06	7.03125
8.065	7.03125
8.07	7.03125
8.075	7.03125
8.08	7.03125
8.085	7.03125
8.09	7.03125
8.095	7.03125
8.1	7.03125
8.105	7.03125
8.11	7.03125
8.115	7.03125
8.12	6.94336
8.125	6.94336
8.13	6.94336
8.135	6.94336
8.14	6.94336
8.145	6.94336
8.15	6.94336
8.155	6.94336
8.16	6.94336
8.165	6.94336
8.17	6.94336
8.175	6.94336
8.18	6.94336
8.185	6.94336
8.19	6.94336
8.195	6.94336
8.2	6.94336
8.205	6.94336
8.21	6.94336
8.215	6.94336
8.22	6.94336
8.225	6.94336
8.23	6.94336
8.235	6.94336
8.24	6.94336
8.245	6.94336
8.25	6.94336
8.255	6.85547
8.26	6.94336
8.265	6.85547
8.27	6.94336
8.275	6.85547
8.28	6.85547
8.285	6.85547
8.29	6.85547
8.295	6.85547
8.3	6.85547
8.305	6.85547
8.31	6.85547
8.315	6.85547
8.32	6.85547
8.325	6.85547
8.33	6.85547
8.335	6.85547
8.34	6.85547
8.345	6.85547
8.35	6.85547
8.355	6.85547
8.36	6.85547
8.365	6.85547
8.37	6.85547
8.375	6.85547
8.38	6.85547
8.385	6.85547
8.39	6.85547
8.395	6.85547
8.4	6.85547
8.405	6.85547
8.41	6.85547
8.415	6.85547
8.42	6.85547
8.425	6.85547
8.43	6.85547
8.435	6.85547
8.44	6.85547
8.445	6.85547
8.45	6.85547
8.455	6.76758
8.46	6.85547
8.465	6.85547
8.47	6.85547
8.475	6.85547
8.48	6.76758
8.485	6.76758
8.49	6.76758
8.495	6.76758
8.5	6.76758
8.505	6.76758
8.51	6.76758
8.515	6.76758
8.52	6.76758
8.525	6.76758
8.53	6.76758
8.535	6.76758
8.54	6.76758
8.545	6.85547
8.55	6.76758
8.555	6.85547
8.56	6.85547
8.565	6.76758
8.57	6.85547
8.575	6.85547
8.58	6.76758
8.585	6.85547
8.59	6.85547
8.595	6.85547
8.6	6.85547
8.605	6.85547
8.61	6.85547
8.615	6.85547
8.62	6.85547
8.625	6.85547
8.63	6.85547
8.635	6.85547
8.64	6.85547
8.645	6.85547
8.65	6.85547
8.655	6.85547
8.66	6.85547
8.665	6.85547
8.67	6.85547
8.675	6.85547
8.68	6.85547
8.685	6.85547
8.69	6.85547
8.695	6.85547
8.7	6.85547
8.705	6.85547
8.71	6.85547
8.715	6.85547
8.72	6.85547
8.725	6.85547
8.73	6.85547
8.735	6.85547
8.74	6.85547
8.745	6.85547
8.75	6.85547
8.755	6.85547
8.76	6.85547
8.765	6.85547
8.77	6.85547
8.775	6.85547
8.78	6.85547
8.785	6.85547
8.79	6.85547
8.795	6.94336
8.8	6.85547
8.805	6.94336
8.81	6.85547
8.815	6.94336
8.82	6.94336
8.825	6.94336
8.83	6.94336
8.835	6.94336
8.84	6.94336
8.845	6.94336
8.85	6.94336
8.855	6.94336
8.86	6.94336
8.865	6.94336
8.87	6.94336
8.875	6.94336
8.88	6.94336
8.885	6.94336
8.89	6.94336
8.895	6.94336
8.9	6.94336
8.905	6.94336
8.91	6.94336
8.915	6.94336
8.92	6.94336
8.925	6.94336
8.93	6.94336
8.935	6.94336
8.94	6.94336
8.945	6.94336
8.95	6.94336
8.955	6.94336
8.96	6.94336
8.965	6.94336
8.97	6.94336
8.975	6.94336
8.98	6.94336
8.985	6.94336
8.99	6.94336
8.995	6.94336
9	6.94336
9.005	6.94336
9.01	6.94336
9.015	6.94336
9.02	6.94336
9.025	6.94336
9.03	6.94336
9.035	6.94336
9.04	6.94336
9.045	6.94336
9.05	6.94336
9.055	6.94336
9.06	6.94336
9.065	6.94336
9.07	6.94336
9.075	6.94336
9.08	6.94336
9.085	6.94336
9.09	6.94336
9.095	6.94336
9.1	6.94336
9.105	6.94336
9.11	6.94336
9.115	6.94336
9.12	6.94336
9.125	6.94336
9.13	6.94336
9.135	6.94336
9.14	6.94336
9.145	6.94336
9.15	6.94336
9.155	6.94336
9.16	6.94336
9.165	6.94336
9.17	6.94336
9.175	6.94336
9.18	6.94336
9.185	6.94336
9.19	6.94336
9.195	6.94336
9.2	6.94336
9.205	6.94336
9.21	6.94336
9.215	6.94336
9.22	6.94336
9.225	6.94336
9.23	6.94336
9.235	6.94336
9.24	6.94336
9.245	6.94336
9.25	6.94336
9.255	6.94336
9.26	6.94336
9.265	6.94336
9.27	6.94336
9.275	6.94336
9.28	6.94336
9.285	6.94336
9.29	6.94336
9.295	6.94336
9.3	6.94336
9.305	6.94336
9.31	6.94336
9.315	6.94336
9.32	7.03125
9.325	7.03125
9.33	7.03125
9.335	7.03125
9.34	7.03125
9.345	7.03125
9.35	7.03125
9.355	7.03125
9.36	7.03125
9.365	7.03125
9.37	7.03125
9.375	7.03125
9.38	7.03125
9.385	7.03125
9.39	7.03125
9.395	7.03125
9.4	7.11914
9.405	7.03125
9.41	7.11914
9.415	7.11914
9.42	7.11914
9.425	7.11914
9.43	7.11914
9.435	7.11914
9.44	7.11914
9.445	7.11914
9.45	7.11914
9.455	7.11914
9.46	7.11914
9.465	7.11914
9.47	7.11914
9.475	7.11914
9.48	7.11914
9.485	7.11914
9.49	7.11914
9.495	7.11914
9.5	7.11914
9.505	7.11914
9.51	7.11914
9.515	7.20703
9.52	7.11914
9.525	7.20703
9.53	7.11914
9.535	7.20703
9.54	7.20703
9.545	7.20703
9.55	7.20703
9.555	7.20703
9.56	7.20703
9.565	7.20703
9.57	7.20703
9.575	7.20703
9.58	7.20703
9.585	7.20703
9.59	7.20703
9.595	7.20703
9.6	7.20703
9.605	7.20703
9.61	7.20703
9.615	7.20703
9.62	7.20703
9.625	7.20703
9.63	7.20703
9.635	7.20703
9.64	7.20703
9.645	7.20703
9.65	7.20703
9.655	7.29492
9.66	7.29492
9.665	7.29492
9.67	7.29492
9.675	7.29492
9.68	7.29492
9.685	7.29492
9.69	7.29492
9.695	7.29492
9.7	7.29492
9.705	7.29492
9.71	7.29492
9.715	7.29492
9.72	7.29492
9.725	7.29492
9.73	7.29492
9.735	7.29492
9.74	7.29492
9.745	7.29492
9.75	7.29492
9.755	7.29492
9.76	7.29492
9.765	7.29492
9.77	7.29492
9.775	7.29492
9.78	7.29492
9.785	7.29492
9.79	7.29492
9.795	7.29492
9.8	7.38281
9.805	7.29492
9.81	7.29492
9.815	7.38281
9.82	7.38281
9.825	7.38281
9.83	7.29492
9.835	7.38281
9.84	7.29492
9.845	7.38281
9.85	7.29492
9.855	7.38281
9.86	7.29492
9.865	7.38281
9.87	7.38281
9.875	7.38281
9.88	7.38281
9.885	7.38281
9.89	7.38281
9.895	7.38281
9.9	7.38281
9.905	7.38281
9.91	7.38281
9.915	7.38281
9.92	7.38281
9.925	7.38281
9.93	7.38281
9.935	7.38281
9.94	7.38281
9.945	7.38281
9.95	7.38281
9.955	7.38281
9.96	7.38281
9.965	7.38281
9.97	7.38281
9.975	7.38281
9.98	7.38281
9.985	7.38281
9.99	7.38281
9.995	7.38281
10	7.38281
10.005	7.38281
10.01	7.38281
10.015	7.38281
10.02	7.38281
10.025	7.38281
10.03	7.38281
10.035	7.38281
10.04	7.38281
10.045	7.38281
10.05	7.38281
10.055	7.38281
10.06	7.38281
10.065	7.38281
10.07	7.38281
10.075	7.38281
10.08	7.38281
10.085	7.38281
10.09	7.38281
10.095	7.4707
10.1	7.4707
10.105	7.38281
10.11	7.38281
10.115	7.4707
10.12	7.4707
10.125	7.38281
10.13	7.38281
10.135	7.4707
10.14	7.38281
10.145	7.38281
10.15	7.38281
10.155	7.38281
10.16	7.38281
10.165	7.38281
10.17	7.38281
10.175	7.38281
10.18	7.38281
10.185	7.38281
10.19	7.4707
10.195	7.38281
10.2	7.38281
10.205	7.4707
10.21	7.4707
10.215	7.4707
10.22	7.4707
10.225	7.4707
10.23	7.4707
10.235	7.4707
10.24	7.4707
10.245	7.55859
10.25	7.55859
10.255	7.55859
10.26	7.55859
10.265	7.55859
10.27	7.55859
10.275	7.64648
10.28	7.64648
10.285	7.64648
10.29	7.73437
10.295	7.82227
10.3	7.82227
10.305	7.91016
10.31	7.99805
10.315	7.99805
10.32	8.08594
10.325	8.08594
10.33	8.17383
10.335	8.34961
10.34	8.34961
10.345	8.4375
10.35	8.61328
10.355	8.70117
10.36	8.78906
10.365	9.05273
10.37	9.14063
10.375	9.22852
10.38	9.4043
10.385	9.58008
10.39	9.66797
10.395	9.93164
10.4	10.0195
10.405	10.1953
10.41	10.459
10.415	10.6348
10.42	10.7227
10.425	11.0742
10.43	11.25
10.435	11.3379
10.44	11.7773
10.445	11.9531
10.45	12.041
10.455	12.7441
10.46	12.832
10.465	13.0078
10.47	13.7109
10.475	13.8867
10.48	14.0625
10.485	14.7656
10.49	15.0293
10.495	15.2051
10.5	15.6445
10.505	15.9082
10.51	16.1719
10.515	16.875
10.52	17.0508
10.525	18.0176
10.53	18.2813
10.535	18.457
10.54	19.1602
10.545	19.4238
10.55	20.0391
10.555	20.3027
10.56	20.7422
10.565	21.0059
10.57	21.1816
10.575	21.7969
10.58	22.0605
10.585	22.2363
10.59	22.7637
10.595	22.9395
10.6	23.1152
10.605	23.4668
10.61	23.6426
10.615	23.8184
10.62	24.1699
10.625	24.2578
10.63	24.4336
10.635	24.7852
10.64	24.873
10.645	25.0488
10.65	25.2246
10.655	25.3125
10.66	25.4004
10.665	25.6641
10.67	25.6641
10.675	25.752
10.68	25.9277
10.685	25.8398
10.69	25.9277
10.695	25.9277
10.7	26.0156
10.705	25.9277
10.71	25.9277
10.715	25.8398
10.72	25.8398
10.725	25.6641
10.73	25.6641
10.735	25.4004
10.74	25.3125
10.745	25.1367
10.75	24.9609
10.755	24.873
10.76	24.6973
10.765	24.3457
10.77	24.1699
10.775	23.6426
10.78	23.5547
10.785	23.291
10.79	22.5879
10.795	22.4121
10.8	22.2363
10.805	21.7969
10.81	21.6211
10.815	21.4453
10.82	20.8301
10.825	20.6543
10.83	20.3906
10.835	19.9512
10.84	19.6875
10.845	19.5117
10.85	18.8086
10.855	18.6328
10.86	18.3691
10.865	17.9297
10.87	17.666
10.875	17.4902
10.88	16.875
10.885	16.6113
10.89	16.4355
10.895	15.8203
10.9	15.5566
10.905	14.9414
10.91	14.6777
10.915	13.8867
10.92	13.7109
10.925	13.5352
10.93	12.9199
10.935	12.7441
10.94	12.6562
10.945	12.3047
10.95	12.1289
10.955	11.6016
10.96	11.4258
10.965	11.1621
10.97	10.9863
10.975	10.8105
10.98	10.2832
10.985	10.1074
10.99	10.0195
10.995	9.75586
11	9.58008
11.005	9.49219
11.01	9.22852
11.015	9.14063
11.02	8.96484
11.025	8.70117
11.03	8.61328
11.035	8.52539
11.04	8.26172
11.045	8.17383
11.05	7.99805
11.055	7.64648
11.06	7.55859
11.065	7.11914
11.07	7.03125
11.075	6.94336
11.08	6.67969
11.085	6.5918
11.09	6.50391
11.095	6.32812
11.1	6.24023
11.105	6.15234
11.11	5.88867
11.115	5.80078
11.12	5.625
11.125	5.53711
11.13	5.44922
11.135	5.27344
11.14	5.18555
11.145	5.09766
11.15	4.92188
11.155	4.83398
11.16	4.74609
11.165	4.48242
11.17	4.39453
11.175	4.30664
11.18	3.95508
11.185	3.86719
11.19	3.86719
11.195	3.60352
11.2	3.51563
11.205	3.33984
11.21	3.25195
11.215	3.16406
11.22	2.98828
11.225	2.98828
11.23	2.90039
11.235	2.72461
11.24	2.63672
11.245	2.54883
11.25	2.37305
11.255	2.28516
11.26	2.19727
11.265	2.02148
11.27	1.93359
11.275	1.8457
11.28	1.58203
11.285	1.49414
11.29	1.40625
11.295	1.31836
11.3	1.23047
11.305	1.14258
11.31	0.966797
11.315	0.878906
11.32	0.791016
11.325	0.615234
11.33	0.527344
11.335	0.527344
11.34	0.351562
11.345	0.263672
11.35	0.175781
11.355	-0.0878906
11.36	-0.0878906
11.365	-0.175781
11.37	-0.263672
11.375	-0.351562
11.38	-0.439453
11.385	-0.615234
11.39	-0.703125
11.395	-0.703125
11.4	-0.878906
11.405	-0.878906
11.41	-0.966797
11.415	-1.14258
11.42	-1.23047
11.425	-1.23047
11.43	-1.40625
11.435	-1.40625
11.44	-1.49414
11.445	-1.66992
11.45	-1.66992
11.455	-1.8457
11.46	-1.8457
11.465	-1.93359
11.47	-1.93359
11.475	-2.02148
11.48	-2.02148
11.485	-2.10938
11.49	-2.19727
11.495	-2.28516
11.5	-2.28516
11.505	-2.37305
11.51	-2.37305
11.515	-2.54883
11.52	-2.54883
11.525	-2.63672
11.53	-2.72461
11.535	-2.72461
11.54	-2.8125
11.545	-2.90039
11.55	-2.90039
11.555	-2.98828
11.56	-3.07617
11.565	-3.07617
11.57	-3.07617
11.575	-3.16406
11.58	-3.16406
11.585	-3.25195
11.59	-3.25195
11.595	-3.25195
11.6	-3.33984
11.605	-3.33984
11.61	-3.33984
11.615	-3.42773
11.62	-3.42773
11.625	-3.51563
11.63	-3.51563
11.635	-3.51563
11.64	-3.60352
11.645	-3.60352
11.65	-3.60352
11.655	-3.7793
11.66	-3.7793
11.665	-3.7793
11.67	-3.7793
11.675	-3.86719
11.68	-3.86719
11.685	-3.86719
11.69	-3.95508
11.695	-3.95508
11.7	-3.95508
11.705	-3.95508
11.71	-3.95508
11.715	-4.04297
11.72	-4.04297
11.725	-4.04297
11.73	-4.13086
11.735	-4.13086
11.74	-4.13086
11.745	-4.13086
11.75	-4.21875
11.755	-4.21875
11.76	-4.21875
11.765	-4.21875
11.77	-4.21875
11.775	-4.21875
11.78	-4.21875
11.785	-4.21875
11.79	-4.21875
11.795	-4.21875
11.8	-4.21875
11.805	-4.21875
11.81	-4.21875
11.815	-4.21875
11.82	-4.21875
11.825	-4.21875
11.83	-4.21875
11.835	-4.21875
11.84	-4.21875
11.845	-4.21875
11.85	-4.30664
11.855	-4.21875
11.86	-4.21875
11.865	-4.21875
11.87	-4.21875
11.875	-4.13086
11.88	-4.13086
11.885	-4.13086
11.89	-4.13086
11.895	-4.13086
11.9	-4.13086
11.905	-4.13086
11.91	-4.04297
11.915	-4.04297
11.92	-4.04297
11.925	-4.04297
11.93	-4.04297
11.935	-3.95508
11.94	-3.95508
11.945	-3.95508
11.95	-3.86719
11.955	-3.86719
11.96	-3.86719
11.965	-3.7793
11.97	-3.7793
11.975	-3.7793
11.98	-3.7793
11.985	-3.7793
11.99	-3.69141
11.995	-3.69141
12	-3.69141
12.005	-3.60352
12.01	-3.60352
12.015	-3.51563
12.02	-3.42773
12.025	-3.42773
12.03	-3.42773
12.035	-3.33984
12.04	-3.33984
12.045	-3.25195
12.05	-3.25195
12.055	-3.25195
12.06	-3.25195
12.065	-3.16406
12.07	-3.16406
12.075	-3.16406
12.08	-3.07617
12.085	-3.07617
12.09	-3.07617
12.095	-3.07617
12.1	-2.98828
12.105	-2.98828
12.11	-2.98828
12.115	-2.98828
12.12	-2.98828
12.125	-2.98828
12.13	-2.90039
12.135	-2.90039
12.14	-2.90039
12.145	-2.90039
12.15	-2.90039
12.155	-2.8125
12.16	-2.8125
12.165	-2.8125
12.17	-2.8125
12.175	-2.8125
12.18	-2.8125
12.185	-2.8125
12.19	-2.8125
12.195	-2.8125
12.2	-2.8125
12.205	-2.8125
12.21	-2.8125
12.215	-2.8125
12.22	-2.8125
12.225	-2.8125
12.23	-2.8125
12.235	-2.8125
12.24	-2.8125
12.245	-2.72461
12.25	-2.72461
12.255	-2.72461
12.26	-2.72461
12.265	-2.72461
12.27	-2.72461
12.275	-2.72461
12.28	-2.72461
12.285	-2.72461
12.29	-2.72461
12.295	-2.72461
12.3	-2.72461
12.305	-2.72461
12.31	-2.72461
12.315	-2.63672
12.32	-2.63672
12.325	-2.63672
12.33	-2.54883
12.335	-2.54883
12.34	-2.54883
12.345	-2.54883
12.35	-2.46094
12.355	-2.46094
12.36	-2.46094
12.365	-2.37305
12.37	-2.37305
12.375	-2.37305
12.38	-2.28516
12.385	-2.28516
12.39	-2.28516
12.395	-2.19727
12.4	-2.19727
12.405	-2.19727
12.41	-2.19727
12.415	-2.10938
12.42	-2.10938
12.425	-2.02148
12.43	-2.02148
12.435	-2.02148
12.44	-1.93359
12.445	-1.93359
12.45	-1.8457
12.455	-1.8457
12.46	-1.75781
12.465	-1.75781
12.47	-1.66992
12.475	-1.66992
12.48	-1.66992
12.485	-1.58203
12.49	-1.58203
12.495	-1.58203
12.5	-1.49414
12.505	-1.40625
12.51	-1.40625
12.515	-1.31836
12.52	-1.23047
12.525	-1.23047
12.53	-1.14258
12.535	-1.14258
12.54	-1.05469
12.545	-1.05469
12.55	-0.966797
12.555	-0.966797
12.56	-0.878906
12.565	-0.878906
12.57	-0.791016
12.575	-0.791016
12.58	-0.791016
12.585	-0.615234
12.59	-0.615234
12.595	-0.527344
12.6	-0.527344
12.605	-0.439453
12.61	-0.351562
12.615	-0.351562
12.62	-0.351562
12.625	-0.263672
12.63	-0.263672
12.635	-0.263672
12.64	-0.175781
12.645	-0.175781
12.65	-0.0878906
12.655	0
12.66	0
12.665	0.0878906
12.67	0.0878906
12.675	0.175781
12.68	0.175781
12.685	0.263672
12.69	0.263672
12.695	0.351562
12.7	0.351562
12.705	0.439453
12.71	0.439453
12.715	0.439453
12.72	0.527344
12.725	0.527344
12.73	0.527344
12.735	0.615234
12.74	0.615234
12.745	0.615234
12.75	0.703125
12.755	0.703125
12.76	0.703125
12.765	0.791016
12.77	0.791016
12.775	0.878906
12.78	0.878906
12.785	0.878906
12.79	0.966797
12.795	0.966797
12.8	1.05469
12.805	1.05469
12.81	1.05469
12.815	1.14258
12.82	1.14258
12.825	1.14258
12.83	1.14258
12.835	1.23047
12.84	1.31836
12.845	1.31836
12.85	1.40625
12.855	1.49414
12.86	1.49414
12.865	1.49414
12.87	1.49414
12.875	1.58203
12.88	1.58203
12.885	1.66992
12.89	1.66992
12.895	1.66992
12.9	1.75781
12.905	1.75781
12.91	1.75781
12.915	1.8457
12.92	1.8457
12.925	1.8457
12.93	1.93359
12.935	1.93359
12.94	1.93359
12.945	2.02148
12.95	2.02148
12.955	2.10938
12.96	2.10938
12.965	2.10938
12.97	2.19727
12.975	2.19727
12.98	2.28516
12.985	2.28516
12.99	2.28516
12.995	2.37305
13	2.46094
13.005	2.46094
13.01	2.46094
13.015	2.54883
13.02	2.54883
13.025	2.54883
13.03	2.63672
13.035	2.63672
13.04	2.72461
13.045	2.72461
13.05	2.8125
13.055	2.8125
13.06	2.90039
13.065	2.90039
13.07	2.98828
13.075	2.98828
13.08	3.07617
13.085	3.07617
13.09	3.16406
13.095	3.16406
13.1	3.16406
13.105	3.25195
13.11	3.25195
13.115	3.33984
13.12	3.33984
13.125	3.33984
13.13	3.42773
13.135	3.42773
13.14	3.42773
13.145	3.51563
13.15	3.51563
13.155	3.51563
13.16	3.60352
13.165	3.60352
13.17	3.60352
13.175	3.69141
13.18	3.69141
13.185	3.69141
13.19	3.69141
13.195	3.7793
13.2	3.7793
13.205	3.7793
13.21	3.86719
13.215	3.86719
13.22	3.95508
13.225	3.95508
13.23	3.95508
13.235	4.04297
13.24	4.04297
13.245	4.04297
13.25	4.13086
13.255	4.13086
13.26	4.13086
13.265	4.21875
13.27	4.21875
13.275	4.21875
13.28	4.30664
13.285	4.30664
13.29	4.30664
13.295	4.39453
13.3	4.39453
13.305	4.39453
13.31	4.48242
13.315	4.48242
13.32	4.48242
13.325	4.57031
13.33	4.57031
13.335	4.57031
13.34	4.57031
13.345	4.6582
13.35	4.6582
13.355	4.6582
13.36	4.74609
13.365	4.74609
13.37	4.83398
13.375	4.83398
13.38	4.83398
13.385	4.83398
13.39	4.83398
13.395	4.83398
13.4	4.83398
13.405	4.92188
13.41	4.92188
13.415	4.92188
13.42	4.92188
13.425	5.00977
13.43	5.00977
13.435	5.00977
13.44	5.00977
13.445	5.00977
13.45	5.09766
13.455	5.09766
13.46	5.09766
13.465	5.18555
13.47	5.18555
13.475	5.18555
13.48	5.18555
13.485	5.18555
13.49	5.18555
13.495	5.27344
13.5	5.27344
13.505	5.27344
13.51	5.27344
13.515	5.27344
13.52	5.36133
13.525	5.36133
13.53	5.36133
13.535	5.36133
13.54	5.36133
13.545	5.44922
13.55	5.44922
13.555	5.44922
13.56	5.44922
13.565	5.44922
13.57	5.53711
13.575	5.53711
13.58	5.53711
13.585	5.53711
13.59	5.53711
13.595	5.625
13.6	5.625
13.605	5.625
13.61	5.625
13.615	5.625
13.62	5.71289
13.625	5.71289
13.63	5.71289
13.635	5.80078
13.64	5.80078
13.645	5.80078
13.65	5.80078
13.655	5.80078
13.66	5.88867
13.665	5.88867
13.67	5.88867
13.675	5.88867
13.68	5.88867
13.685	5.97656
13.69	5.97656
13.695	5.97656
13.7	5.97656
13.705	5.97656
13.71	6.06445
13.715	6.06445
13.72	6.06445
13.725	6.06445
13.73	6.06445
13.735	6.06445
13.74	6.06445
13.745	6.15234
13.75	6.15234
13.755	6.15234
13.76	6.15234
13.765	6.24023
13.77	6.24023
13.775	6.24023
13.78	6.24023
13.785	6.24023
13.79	6.32812
13.795	6.32812
13.8	6.32812
13.805	6.41602
13.81	6.41602
13.815	6.41602
13.82	6.41602
13.825	6.41602
13.83	6.41602
13.835	6.41602
13.84	6.50391
13.845	6.50391
13.85	6.50391
13.855	6.50391
13.86	6.5918
13.865	6.5918
13.87	6.5918
13.875	6.5918
13.88	6.5918
13.885	6.5918
13.89	6.5918
13.895	6.5918
13.9	6.5918
13.905	6.67969
13.91	6.67969
13.915	6.67969
13.92	6.67969
13.925	6.67969
13.93	6.67969
13.935	6.67969
13.94	6.67969
13.945	6.76758
13.95	6.76758
13.955	6.76758
13.96	6.76758
13.965	6.76758
13.97	6.76758
13.975	6.76758
13.98	6.76758
13.985	6.76758
13.99	6.76758
13.995	6.76758
14	6.76758
14.005	6.85547
14.01	6.85547
14.015	6.85547
14.02	6.85547
14.025	6.85547
14.03	6.85547
14.035	6.85547
14.04	6.85547
14.045	6.94336
14.05	6.94336
14.055	6.94336
14.06	6.94336
14.065	6.94336
14.07	6.94336
14.075	6.94336
14.08	6.94336
14.085	6.94336
14.09	6.94336
14.095	6.94336
14.1	6.94336
14.105	6.94336
14.11	6.94336
14.115	6.94336
14.12	6.94336
14.125	6.94336
14.13	6.94336
14.135	6.94336
14.14	6.94336
14.145	6.94336
14.15	6.94336
14.155	6.94336
14.16	6.94336
14.165	6.94336
14.17	6.94336
14.175	6.94336
14.18	6.94336
14.185	6.94336
14.19	6.94336
14.195	6.94336
14.2	6.94336
14.205	6.94336
14.21	6.94336
14.215	6.94336
14.22	6.94336
14.225	6.94336
14.23	6.94336
14.235	6.94336
14.24	6.85547
14.245	6.85547
14.25	6.94336
14.255	6.85547
14.26	6.85547
14.265	6.85547
14.27	6.85547
14.275	6.85547
14.28	6.85547
14.285	6.85547
14.29	6.76758
14.295	6.76758
14.3	6.76758
14.305	6.76758
14.31	6.76758
14.315	6.76758
14.32	6.76758
14.325	6.76758
14.33	6.76758
14.335	6.76758
14.34	6.76758
14.345	6.76758
14.35	6.76758
14.355	6.76758
14.36	6.67969
14.365	6.67969
14.37	6.67969
14.375	6.67969
14.38	6.67969
14.385	6.67969
14.39	6.67969
14.395	6.67969
14.4	6.67969
14.405	6.67969
14.41	6.67969
14.415	6.67969
14.42	6.67969
14.425	6.67969
14.43	6.67969
14.435	6.67969
14.44	6.67969
14.445	6.67969
14.45	6.5918
14.455	6.5918
14.46	6.5918
14.465	6.5918
14.47	6.5918
14.475	6.5918
14.48	6.5918
14.485	6.5918
14.49	6.5918
14.495	6.5918
14.5	6.5918
14.505	6.5918
14.51	6.5918
14.515	6.50391
14.52	6.50391
14.525	6.50391
14.53	6.50391
14.535	6.50391
14.54	6.50391
14.545	6.50391
14.55	6.50391
14.555	6.50391
14.56	6.41602
14.565	6.41602
14.57	6.41602
14.575	6.41602
14.58	6.41602
14.585	6.41602
14.59	6.41602
14.595	6.41602
14.6	6.41602
14.605	6.41602
14.61	6.41602
14.615	6.41602
14.62	6.41602
14.625	6.41602
14.63	6.41602
14.635	6.41602
14.64	6.41602
14.645	6.32812
14.65	6.32812
14.655	6.32812
14.66	6.32812
14.665	6.32812
14.67	6.32812
14.675	6.32812
14.68	6.32812
14.685	6.32812
14.69	6.32812
14.695	6.32812
14.7	6.32812
14.705	6.32812
14.71	6.32812
14.715	6.32812
14.72	6.32812
14.725	6.32812
14.73	6.32812
14.735	6.32812
14.74	6.32812
14.745	6.32812
14.75	6.32812
14.755	6.24023
14.76	6.24023
14.765	6.24023
14.77	6.24023
14.775	6.24023
14.78	6.24023
14.785	6.24023
14.79	6.24023
14.795	6.24023
14.8	6.24023
14.805	6.24023
14.81	6.24023
14.815	6.24023
14.82	6.24023
14.825	6.24023
14.83	6.24023
14.835	6.24023
14.84	6.24023
14.845	6.24023
14.85	6.24023
14.855	6.24023
14.86	6.24023
14.865	6.24023
14.87	6.24023
14.875	6.24023
14.88	6.24023
14.885	6.24023
14.89	6.24023
14.895	6.24023
14.9	6.24023
14.905	6.24023
14.91	6.24023
14.915	6.24023
14.92	6.24023
14.925	6.24023
14.93	6.15234
14.935	6.15234
14.94	6.15234
14.945	6.15234
14.95	6.15234
14.955	6.15234
14.96	6.15234
14.965	6.15234
14.97	6.15234
14.975	6.15234
14.98	6.15234
14.985	6.15234
14.99	6.15234
14.995	6.15234
15	6.15234
15.005	6.15234
15.01	6.15234
15.015	6.06445
15.02	6.06445
15.025	6.06445
15.03	6.06445
15.035	6.06445
15.04	6.06445
15.045	6.06445
15.05	6.06445
15.055	6.06445
15.06	6.06445
15.065	6.06445
15.07	6.06445
15.075	6.06445
15.08	6.06445
15.085	6.06445
15.09	6.06445
15.095	6.06445
15.1	6.06445
15.105	6.06445
15.11	6.06445
15.115	5.97656
15.12	6.06445
15.125	5.97656
15.13	5.97656
15.135	6.06445
15.14	5.97656
15.145	5.97656
15.15	5.97656
15.155	5.97656
15.16	5.97656
15.165	5.97656
15.17	5.97656
15.175	5.97656
15.18	5.97656
15.185	5.97656
15.19	5.97656
15.195	5.88867
15.2	5.88867
15.205	5.88867
15.21	5.88867
15.215	5.88867
15.22	5.88867
15.225	5.80078
15.23	5.88867
15.235	5.80078
15.24	5.80078
15.245	5.71289
15.25	5.80078
15.255	5.625
15.26	5.80078
15.265	5.71289
15.27	5.625
15.275	5.625
15.28	5.625
15.285	5.53711
15.29	5.625
15.295	5.53711
15.3	5.53711
15.305	5.53711
15.31	5.44922
15.315	5.44922
15.32	5.36133
15.325	5.36133
15.33	5.36133
15.335	5.27344
15.34	5.36133
15.345	5.27344
15.35	5.36133
15.355	5.36133
15.36	5.27344
15.365	5.27344
15.37	5.27344
15.375	5.18555
15.38	5.18555
15.385	5.18555
15.39	5.18555
15.395	5.18555
15.4	5.18555
15.405	5.18555
15.41	5.27344
15.415	5.27344
15.42	5.27344
15.425	5.27344
15.43	5.27344
15.435	5.27344
15.44	5.27344
15.445	5.27344
15.45	5.18555
15.455	5.18555
15.46	5.18555
15.465	5.18555
15.47	5.18555
15.475	5.27344
15.48	5.36133
15.485	5.36133
15.49	5.36133
15.495	5.36133
15.5	5.36133
15.505	5.36133
15.51	5.36133
15.515	5.36133
15.52	5.36133
15.525	5.27344
15.53	5.27344
15.535	5.27344
15.54	5.36133
15.545	5.36133
15.55	5.36133
15.555	5.36133
15.56	5.36133
15.565	5.36133
15.57	5.36133
15.575	5.36133
15.58	5.27344
15.585	5.27344
15.59	5.18555
15.595	5.18555
15.6	5.18555
15.605	5.18555
15.61	5.18555
15.615	5.18555
15.62	5.18555
15.625	5.18555
15.63	5.18555
15.635	5.09766
15.64	5.09766
15.645	5.09766
15.65	5.00977
15.655	4.92188
15.66	4.92188
15.665	4.83398
15.67	4.83398
15.675	4.83398
15.68	4.74609
15.685	4.83398
15.69	4.83398
15.695	4.6582
15.7	4.6582
15.705	4.74609
15.71	4.57031
15.715	4.57031
15.72	4.57031
15.725	4.39453
15.73	4.39453
15.735	4.39453
15.74	4.30664
15.745	4.30664
15.75	4.30664
15.755	4.39453
15.76	4.30664
15.765	4.21875
15.77	4.30664
15.775	4.21875
15.78	4.13086
15.785	4.13086
15.79	4.04297
15.795	4.04297
15.8	4.04297
15.805	3.95508
15.81	4.04297
15.815	3.86719
15.82	3.95508
15.825	3.95508
15.83	3.86719
15.835	3.86719
15.84	3.86719
15.845	3.7793
15.85	3.7793
15.855	3.7793
15.86	3.7793
15.865	3.7793
15.87	3.7793
15.875	3.7793
15.88	3.7793
15.885	3.86719
15.89	3.86719
15.895	3.86719
15.9	3.86719
15.905	3.95508
15.91	3.86719
15.915	3.95508
15.92	3.95508
15.925	3.95508
15.93	4.04297
15.935	4.04297
15.94	4.13086
15.945	4.13086
15.95	4.21875
15.955	4.21875
15.96	4.21875
15.965	4.30664
15.97	4.30664
15.975	4.39453
15.98	4.48242
15.985	4.48242
15.99	4.48242
15.995	4.6582
16	4.74609
16.005	4.92188
16.01	4.92188
16.015	4.92188
16.02	5.09766
16.025	5.09766
16.03	5.09766
16.035	5.18555
16.04	5.27344
16.045	5.27344
16.05	5.44922
16.055	5.44922
16.06	5.53711
16.065	5.625
16.07	5.71289
16.075	5.71289
16.08	5.88867
16.085	5.88867
16.09	5.88867
16.095	5.97656
16.1	6.06445
16.105	6.06445
16.11	6.24023
16.115	6.24023
16.12	6.24023
16.125	6.32812
16.13	6.41602
16.135	6.41602
16.14	6.50391
16.145	6.5918
16.15	6.67969
16.155	6.76758
16.16	6.76758
16.165	6.94336
16.17	6.94336
16.175	6.94336
16.18	7.03125
16.185	7.03125
16.19	7.11914
16.195	7.11914
16.2	7.20703
16.205	7.29492
16.21	7.29492
16.215	7.29492
16.22	7.38281
16.225	7.38281
16.23	7.4707
16.235	7.4707
16.24	7.4707
16.245	7.4707
16.25	7.4707
16.255	7.55859
16.26	7.55859
16.265	7.55859
16.27	7.64648
16.275	7.64648
16.28	7.64648
16.285	7.64648
16.29	7.64648
16.295	7.64648
16.3	7.64648
16.305	7.64648
16.31	7.64648
16.315	7.64648
16.32	7.73437
16.325	7.73437
16.33	7.73437
16.335	7.73437
16.34	7.73437
16.345	7.73437
16.35	7.73437
16.355	7.73437
16.36	7.73437
16.365	7.73437
16.37	7.73437
16.375	7.73437
16.38	7.73437
16.385	7.73437
16.39	7.73437
16.395	7.73437
16.4	7.73437
16.405	7.73437
16.41	7.73437
16.415	7.73437
16.42	7.73437
16.425	7.73437
16.43	7.73437
16.435	7.73437
16.44	7.73437
16.445	7.73437
16.45	7.73437
16.455	7.64648
16.46	7.64648
16.465	7.64648
16.47	7.64648
16.475	7.64648
16.48	7.64648
16.485	7.64648
16.49	7.64648
16.495	7.64648
16.5	7.64648
16.505	7.64648
16.51	7.64648
16.515	7.64648
16.52	7.64648
16.525	7.64648
16.53	7.64648
16.535	7.64648
16.54	7.64648
16.545	7.64648
16.55	7.64648
16.555	7.64648
16.56	7.64648
16.565	7.73437
16.57	7.73437
16.575	7.73437
16.58	7.73437
16.585	7.73437
16.59	7.73437
16.595	7.73437
16.6	7.73437
16.605	7.73437
16.61	7.73437
16.615	7.73437
16.62	7.73437
16.625	7.73437
16.63	7.73437
16.635	7.73437
16.64	7.73437
16.645	7.73437
16.65	7.73437
16.655	7.73437
16.66	7.73437
16.665	7.73437
16.67	7.82227
16.675	7.73437
16.68	7.82227
16.685	7.82227
16.69	7.82227
16.695	7.82227
16.7	7.82227
16.705	7.82227
16.71	7.82227
16.715	7.82227
16.72	7.82227
16.725	7.82227
16.73	7.82227
16.735	7.82227
16.74	7.82227
16.745	7.82227
16.75	7.82227
16.755	7.82227
16.76	7.82227
16.765	7.82227
16.77	7.82227
16.775	7.82227
16.78	7.82227
16.785	7.82227
16.79	7.82227
16.795	7.82227
16.8	7.82227
16.805	7.82227
16.81	7.82227
16.815	7.82227
16.82	7.82227
16.825	7.82227
16.83	7.82227
16.835	7.82227
16.84	7.82227
16.845	7.82227
16.85	7.82227
16.855	7.82227
16.86	7.82227
16.865	7.82227
16.87	7.82227
16.875	7.82227
16.88	7.82227
16.885	7.82227
16.89	7.82227
16.895	7.82227
16.9	7.82227
16.905	7.82227
16.91	7.82227
16.915	7.82227
16.92	7.82227
16.925	7.82227
16.93	7.82227
16.935	7.82227
16.94	7.73437
16.945	7.73437
16.95	7.73437
16.955	7.73437
16.96	7.73437
16.965	7.73437
16.97	7.73437
16.975	7.64648
16.98	7.64648
16.985	7.64648
16.99	7.64648
16.995	7.64648
17	7.64648
17.005	7.64648
17.01	7.64648
17.015	7.64648
17.02	7.64648
17.025	7.64648
17.03	7.55859
17.035	7.64648
17.04	7.64648
17.045	7.55859
17.05	7.55859
17.055	7.55859
17.06	7.55859
17.065	7.55859
17.07	7.55859
17.075	7.55859
17.08	7.4707
17.085	7.4707
17.09	7.4707
17.095	7.4707
17.1	7.4707
17.105	7.4707
17.11	7.4707
17.115	7.4707
17.12	7.4707
17.125	7.38281
17.13	7.38281
17.135	7.38281
17.14	7.38281
17.145	7.38281
17.15	7.38281
17.155	7.38281
17.16	7.29492
17.165	7.29492
17.17	7.29492
17.175	7.29492
17.18	7.29492
17.185	7.29492
17.19	7.29492
17.195	7.29492
17.2	7.20703
17.205	7.20703
17.21	7.20703
17.215	7.20703
17.22	7.20703
17.225	7.20703
17.23	7.20703
17.235	7.20703
17.24	7.20703
17.245	7.20703
17.25	7.20703
17.255	7.20703
17.26	7.11914
17.265	7.11914
17.27	7.11914
17.275	7.11914
17.28	7.11914
17.285	7.11914
17.29	7.11914
17.295	7.11914
17.3	7.11914
17.305	7.11914
17.31	7.11914
17.315	7.11914
17.32	7.03125
17.325	7.03125
17.33	7.03125
17.335	7.03125
17.34	7.03125
17.345	7.03125
17.35	7.03125
17.355	7.03125
17.36	7.03125
17.365	7.03125
17.37	7.03125
17.375	7.03125
17.38	6.94336
17.385	6.94336
17.39	6.94336
17.395	6.94336
17.4	6.94336
17.405	6.94336
17.41	6.94336
17.415	6.94336
17.42	6.94336
17.425	6.94336
17.43	6.94336
17.435	6.94336
17.44	6.94336
17.445	6.94336
17.45	6.94336
17.455	6.94336
17.46	6.94336
17.465	6.94336
17.47	6.85547
17.475	6.85547
17.48	6.85547
17.485	6.85547
17.49	6.85547
17.495	6.85547
17.5	6.85547
17.505	6.85547
17.51	6.85547
17.515	6.85547
17.52	6.85547
17.525	6.85547
17.53	6.85547
17.535	6.85547
17.54	6.85547
17.545	6.76758
17.55	6.76758
17.555	6.76758
17.56	6.76758
17.565	6.76758
17.57	6.76758
17.575	6.76758
17.58	6.76758
17.585	6.76758
17.59	6.76758
17.595	6.76758
17.6	6.76758
17.605	6.76758
17.61	6.76758
17.615	6.76758
17.62	6.67969
17.625	6.76758
17.63	6.67969
17.635	6.67969
17.64	6.76758
17.645	6.67969
17.65	6.67969
17.655	6.67969
17.66	6.67969
17.665	6.67969
17.67	6.67969
17.675	6.67969
17.68	6.67969
17.685	6.67969
17.69	6.67969
17.695	6.67969
17.7	6.67969
17.705	6.67969
17.71	6.67969
17.715	6.67969
17.72	6.67969
17.725	6.67969
17.73	6.67969
17.735	6.67969
17.74	6.5918
17.745	6.5918
17.75	6.5918
17.755	6.5918
17.76	6.5918
17.765	6.5918
17.77	6.5918
17.775	6.5918
17.78	6.5918
17.785	6.5918
17.79	6.5918
17.795	6.5918
17.8	6.5918
17.805	6.5918
17.81	6.5918
17.815	6.5918
17.82	6.5918
17.825	6.5918
17.83	6.5918
17.835	6.5918
17.84	6.5918
17.845	6.50391
17.85	6.50391
17.855	6.50391
17.86	6.50391
17.865	6.50391
17.87	6.50391
17.875	6.50391
17.88	6.50391
17.885	6.50391
17.89	6.50391
17.895	6.50391
17.9	6.50391
17.905	6.50391
17.91	6.50391
17.915	6.41602
17.92	6.41602
17.925	6.41602
17.93	6.50391
17.935	6.41602
17.94	6.41602
17.945	6.41602
17.95	6.41602
17.955	6.41602
17.96	6.41602
17.965	6.41602
17.97	6.41602
17.975	6.41602
17.98	6.41602
17.985	6.41602
17.99	6.41602
17.995	6.41602
18	6.41602
18.005	6.41602
18.01	6.41602
18.015	6.41602
18.02	6.41602
18.025	6.41602
18.03	6.41602
18.035	6.41602
18.04	6.41602
18.045	6.41602
18.05	6.41602
18.055	6.41602
18.06	6.41602
18.065	6.50391
18.07	6.50391
18.075	6.50391
18.08	6.50391
18.085	6.50391
18.09	6.50391
18.095	6.50391
18.1	6.50391
18.105	6.50391
18.11	6.50391
18.115	6.50391
18.12	6.5918
18.125	6.5918
18.13	6.5918
18.135	6.5918
18.14	6.5918
18.145	6.5918
18.15	6.5918
18.155	6.5918
18.16	6.5918
18.165	6.5918
18.17	6.67969
18.175	6.67969
18.18	6.67969
18.185	6.67969
18.19	6.67969
18.195	6.67969
18.2	6.67969
18.205	6.67969
18.21	6.67969
18.215	6.67969
18.22	6.67969
18.225	6.67969
18.23	6.67969
18.235	6.67969
18.24	6.67969
18.245	6.67969
18.25	6.67969
18.255	6.67969
18.26	6.67969
18.265	6.67969
18.27	6.67969
18.275	6.67969
18.28	6.67969
18.285	6.67969
18.29	6.67969
18.295	6.67969
18.3	6.67969
18.305	6.67969
18.31	6.67969
18.315	6.67969
18.32	6.67969
18.325	6.67969
18.33	6.67969
18.335	6.67969
18.34	6.67969
18.345	6.67969
18.35	6.67969
18.355	6.67969
18.36	6.67969
18.365	6.67969
18.37	6.67969
18.375	6.76758
18.38	6.76758
18.385	6.76758
18.39	6.76758
18.395	6.76758
18.4	6.76758
18.405	6.76758
18.41	6.76758
18.415	6.76758
18.42	6.76758
18.425	6.76758
18.43	6.76758
18.435	6.76758
18.44	6.76758
18.445	6.76758
18.45	6.76758
18.455	6.76758
18.46	6.76758
18.465	6.76758
18.47	6.76758
18.475	6.76758
18.48	6.76758
18.485	6.76758
18.49	6.76758
18.495	6.76758
18.5	6.76758
18.505	6.76758
18.51	6.76758
18.515	6.76758
18.52	6.76758
18.525	6.76758
18.53	6.76758
18.535	6.76758
18.54	6.76758
18.545	6.76758
18.55	6.76758
18.555	6.76758
18.56	6.76758
18.565	6.76758
18.57	6.76758
18.575	6.76758
18.58	6.85547
18.585	6.76758
18.59	6.76758
18.595	6.76758
18.6	6.76758
18.605	6.76758
18.61	6.76758
18.615	6.76758
18.62	6.76758
18.625	6.76758
18.63	6.76758
18.635	6.76758
18.64	6.76758
18.645	6.76758
18.65	6.76758
18.655	6.76758
18.66	6.76758
18.665	6.76758
18.67	6.76758
18.675	6.76758
18.68	6.76758
18.685	6.76758
18.69	6.76758
18.695	6.76758
18.7	6.76758
18.705	6.76758
18.71	6.76758
18.715	6.76758
18.72	6.76758
18.725	6.85547
18.73	6.85547
18.735	6.85547
18.74	6.85547
18.745	6.85547
18.75	6.85547
18.755	6.85547
18.76	6.85547
18.765	6.67969
18.77	6.67969
18.775	6.67969
18.78	6.67969
18.785	6.67969
18.79	6.67969
18.795	6.67969
18.8	6.67969
18.805	6.67969
18.81	6.67969
18.815	6.67969
18.82	6.67969
18.825	6.67969
18.83	6.67969
18.835	6.67969
18.84	6.76758
18.845	6.76758
18.85	6.76758
18.855	6.76758
18.86	6.76758
18.865	6.76758
18.87	6.85547
18.875	6.76758
18.88	6.85547
18.885	6.85547
18.89	6.85547
18.895	6.85547
18.9	6.85547
18.905	6.85547
18.91	6.85547
18.915	6.94336
18.92	6.94336
18.925	6.94336
18.93	6.94336
18.935	6.94336
18.94	6.94336
18.945	6.94336
18.95	6.94336
18.955	7.03125
18.96	7.03125
18.965	7.03125
18.97	7.03125
18.975	7.03125
18.98	7.03125
18.985	7.03125
18.99	7.11914
18.995	7.11914
19	7.11914
19.005	7.11914
19.01	7.11914
19.015	7.11914
19.02	7.11914
19.025	7.11914
19.03	7.11914
19.035	7.11914
19.04	7.11914
19.045	7.11914
19.05	7.20703
19.055	7.20703
19.06	7.20703
19.065	7.20703
19.07	7.20703
19.075	7.20703
19.08	7.20703
19.085	7.20703
19.09	7.20703
19.095	7.20703
19.1	7.29492
19.105	7.29492
19.11	7.29492
19.115	7.29492
19.12	7.29492
19.125	7.29492
19.13	7.29492
19.135	7.29492
19.14	7.29492
19.145	7.29492
19.15	7.29492
19.155	7.29492
19.16	7.29492
19.165	7.29492
19.17	7.29492
19.175	7.29492
19.18	7.20703
19.185	7.29492
19.19	7.20703
19.195	7.20703
19.2	7.20703
19.205	7.20703
19.21	7.20703
19.215	7.20703
19.22	7.20703
19.225	7.20703
19.23	7.20703
19.235	7.20703
19.24	7.20703
19.245	7.20703
19.25	7.20703
19.255	7.20703
19.26	7.20703
19.265	7.20703
19.27	7.20703
19.275	7.11914
19.28	7.11914
19.285	7.20703
19.29	7.11914
19.295	7.11914
19.3	7.11914
19.305	7.11914
19.31	7.11914
19.315	7.11914
19.32	7.11914
19.325	7.11914
19.33	7.11914
19.335	7.11914
19.34	7.11914
19.345	7.11914
19.35	7.11914
19.355	7.11914
19.36	7.11914
19.365	7.11914
19.37	7.11914
19.375	7.11914
19.38	7.11914
19.385	7.03125
19.39	7.11914
19.395	7.03125
19.4	7.03125
19.405	7.03125
19.41	7.03125
19.415	7.03125
19.42	7.03125
19.425	7.03125
19.43	7.03125
19.435	7.03125
19.44	7.03125
19.445	7.03125
19.45	7.03125
19.455	7.03125
19.46	7.03125
19.465	7.03125
19.47	7.03125
19.475	7.03125
19.48	7.03125
19.485	7.03125
19.49	7.03125
19.495	7.03125
19.5	7.03125
19.505	7.03125
19.51	7.03125
19.515	7.03125
19.52	7.03125
19.525	7.03125
19.53	7.03125
19.535	7.03125
19.54	7.03125
19.545	7.03125
19.55	7.03125
19.555	7.03125
19.56	7.03125
19.565	7.03125
19.57	7.03125
19.575	7.03125
19.58	7.03125
19.585	7.03125
19.59	7.03125
19.595	7.03125
19.6	7.03125
19.605	7.03125
19.61	6.94336
19.615	6.94336
19.62	6.94336
19.625	7.03125
19.63	6.94336
19.635	6.94336
19.64	7.03125
19.645	6.94336
19.65	7.03125
19.655	6.94336
19.66	6.94336
19.665	7.03125
19.67	6.94336
19.675	7.03125
19.68	6.94336
19.685	6.94336
19.69	6.94336
19.695	6.94336
19.7	6.94336
19.705	6.94336
19.71	6.94336
19.715	6.94336
19.72	6.94336
19.725	6.94336
19.73	6.94336
19.735	6.94336
19.74	6.94336
19.745	6.94336
19.75	6.94336
19.755	6.94336
19.76	6.94336
19.765	6.94336
19.77	6.94336
19.775	6.94336
19.78	6.94336
19.785	6.94336
19.79	6.94336
19.795	6.94336
19.8	6.94336
19.805	6.94336
19.81	6.94336
19.815	6.94336
19.82	6.94336
19.825	6.94336
19.83	6.94336
19.835	6.94336
19.84	6.94336
19.845	6.94336
19.85	6.94336
19.855	6.94336
19.86	6.94336
19.865	6.94336
19.87	6.94336
19.875	6.94336
19.88	6.94336
19.885	6.94336
19.89	6.94336
19.895	6.94336
19.9	6.94336
19.905	6.94336
19.91	6.94336
19.915	6.94336
19.92	6.94336
19.925	6.94336
19.93	6.94336
19.935	6.94336
19.94	6.94336
19.945	6.94336
19.95	6.94336
19.955	6.94336
19.96	6.94336
19.965	6.94336
19.97	6.94336
19.975	6.94336
19.98	6.94336
19.985	6.85547
19.99	6.94336
19.995	6.94336
20	6.94336
20.005	6.94336
20.01	6.94336
20.015	6.94336
20.02	6.94336
20.025	6.94336
20.03	6.94336
20.035	6.94336
20.04	6.94336
20.045	6.94336
20.05	6.94336
20.055	6.94336
20.06	6.94336
20.065	6.94336
20.07	6.94336
20.075	6.94336
20.08	6.85547
20.085	6.85547
20.09	6.85547
20.095	6.85547
20.1	6.85547
20.105	6.85547
20.11	6.85547
20.115	6.85547
20.12	6.85547
20.125	6.76758
20.13	6.76758
20.135	6.67969
20.14	6.67969
20.145	6.67969
20.15	6.67969
20.155	6.5918
20.16	6.5918
20.165	6.50391
20.17	6.50391
20.175	6.50391
20.18	6.32812
20.185	6.24023
20.19	6.24023
20.195	6.15234
20.2	6.15234
20.205	6.06445
20.21	5.88867
20.215	5.88867
20.22	5.80078
20.225	5.71289
20.23	5.71289
20.235	5.625
20.24	5.44922
20.245	5.36133
20.25	5.27344
20.255	5.09766
20.26	5.00977
20.265	4.92188
20.27	4.74609
20.275	4.6582
20.28	4.57031
20.285	4.30664
20.29	4.21875
20.295	4.13086
20.3	3.7793
20.305	3.69141
20.31	3.60352
20.315	3.33984
20.32	3.25195
20.325	2.90039
20.33	2.72461
20.335	2.37305
20.34	2.19727
20.345	1.75781
20.35	1.58203
20.355	1.40625
20.36	1.14258
20.365	0.966797
20.37	0.791016
20.375	0.439453
20.38	0.263672
20.385	0
20.39	-0.351562
20.395	-0.527344
20.4	-0.703125
20.405	-1.31836
20.41	-1.49414
20.415	-2.10938
20.42	-2.37305
20.425	-2.54883
20.43	-2.98828
20.435	-3.25195
20.44	-3.42773
20.445	-3.86719
20.45	-4.13086
20.455	-4.30664
20.46	-4.74609
20.465	-4.92188
20.47	-5.18555
20.475	-5.625
20.48	-5.88867
20.485	-6.06445
20.49	-6.50391
20.495	-6.76758
20.5	-6.94336
20.505	-7.55859
20.51	-7.73437
20.515	-7.91016
20.52	-8.52539
20.525	-8.70117
20.53	-8.87695
20.535	-9.58008
20.54	-9.75586
20.545	-9.93164
20.55	-10.1953
20.555	-10.3711
20.56	-10.459
20.565	-10.8984
20.57	-11.0742
20.575	-11.3379
20.58	-11.4258
20.585	-11.6016
20.59	-11.7773
20.595	-11.7773
20.6	-11.9531
20.605	-12.1289
20.61	-12.2168
20.615	-12.3047
20.62	-12.3926
20.625	-12.3926
20.63	-12.4805
20.635	-12.4805
20.64	-12.5684
20.645	-12.5684
20.65	-12.5684
20.655	-12.5684
20.66	-12.5684
20.665	-12.4805
20.67	-12.4805
20.675	-12.3926
20.68	-12.2168
20.685	-12.2168
20.69	-11.9531
20.695	-11.8652
20.7	-11.7773
20.705	-11.5137
20.71	-11.3379
20.715	-11.25
20.72	-10.7227
20.725	-10.5469
20.73	-9.93164
20.735	-9.75586
20.74	-9.58008
20.745	-9.05273
20.75	-8.87695
20.755	-8.70117
20.76	-7.82227
20.765	-7.64648
20.77	-7.4707
20.775	-6.5918
20.78	-6.24023
20.785	-6.15234
20.79	-5.36133
20.795	-5.18555
20.8	-4.92188
20.805	-4.21875
20.81	-3.95508
20.815	-3.7793
20.82	-3.25195
20.825	-3.07617
20.83	-2.90039
20.835	-2.37305
20.84	-2.10938
20.845	-1.93359
20.85	-1.40625
20.855	-1.23047
20.86	-0.966797
20.865	-0.527344
20.87	-0.351562
20.875	-0.0878906
20.88	0.263672
20.885	0.527344
20.89	0.703125
20.895	1.05469
20.9	1.31836
20.905	1.49414
20.91	1.8457
20.915	2.02148
20.92	2.28516
20.925	2.63672
20.93	2.8125
20.935	2.98828
20.94	3.33984
20.945	3.51563
20.95	3.69141
20.955	4.21875
20.96	4.39453
20.965	4.48242
20.97	4.74609
20.975	4.92188
20.98	5.00977
20.985	5.44922
20.99	5.625
20.995	6.15234
21	6.24023
21.005	6.41602
21.01	6.94336
21.015	7.11914
21.02	7.11914
21.025	7.29492
21.03	7.4707
21.035	7.55859
21.04	7.82227
21.045	7.99805
21.05	7.99805
21.055	8.34961
21.06	8.4375
21.065	8.52539
21.07	8.78906
21.075	8.87695
21.08	9.14063
21.085	9.22852
21.09	9.22852
21.095	9.58008
21.1	9.58008
21.105	9.84375
21.11	9.84375
21.115	9.84375
21.12	10.1953
21.125	10.1953
21.13	10.459
21.135	10.459
21.14	10.5469
21.145	10.7227
21.15	10.8105
21.155	10.8105
21.16	10.9863
21.165	11.0742
21.17	11.1621
21.175	11.3379
21.18	11.4258
21.185	11.5137
21.19	11.6016
21.195	11.6895
21.2	11.7773
21.205	11.9531
21.21	12.041
21.215	12.1289
21.22	12.2168
21.225	12.3047
21.23	12.3926
21.235	12.6562
21.24	12.7441
21.245	12.832
21.25	13.0078
21.255	13.0957
21.26	13.1836
21.265	13.3594
21.27	13.4473
21.275	13.4473
21.28	13.623
21.285	13.7109
21.29	13.7988
21.295	14.0625
21.3	14.1504
21.305	14.1504
21.31	14.3262
21.315	14.3262
21.32	14.4141
21.325	14.5898
21.33	14.6777
21.335	14.7656
21.34	14.8535
21.345	14.9414
21.35	15.0293
21.355	15.293
21.36	15.3809
21.365	15.3809
21.37	15.5566
21.375	15.5566
21.38	15.6445
21.385	15.7324
21.39	15.8203
21.395	15.8203
21.4	16.084
21.405	16.084
21.41	16.084
21.415	16.2598
21.42	16.2598
21.425	16.3477
21.43	16.4355
21.435	16.4355
21.44	16.5234
21.445	16.6992
21.45	16.6992
21.455	16.6992
21.46	16.7871
21.465	16.875
21.47	16.875
21.475	16.9629
21.48	17.0508
21.485	17.0508
21.49	17.2266
21.495	17.2266
21.5	17.3145
21.505	17.3145
21.51	17.3145
21.515	17.3145
21.52	17.3145
21.525	17.4023
21.53	17.4023
21.535	17.4023
21.54	17.4023
21.545	17.4902
21.55	17.4902
21.555	17.4902
21.56	17.4902
21.565	17.4902
21.57	17.4902
21.575	17.5781
21.58	17.5781
21.585	17.5781
21.59	17.5781
21.595	17.5781
21.6	17.5781
21.605	17.5781
21.61	17.5781
21.615	17.5781
21.62	17.5781
21.625	17.5781
21.63	17.5781
21.635	17.5781
21.64	17.5781
21.645	17.5781
21.65	17.4902
21.655	17.4902
21.66	17.4902
21.665	17.4902
21.67	17.4902
21.675	17.4902
21.68	17.4902
21.685	17.4902
21.69	17.4023
21.695	17.4023
21.7	17.3145
21.705	17.4023
21.71	17.3145
21.715	17.2266
21.72	17.2266
21.725	17.2266
21.73	17.1387
21.735	17.1387
21.74	17.1387
21.745	17.0508
21.75	17.0508
21.755	17.0508
21.76	16.9629
21.765	16.9629
21.77	16.7871
21.775	16.7871
21.78	16.7871
21.785	16.7871
21.79	16.7871
21.795	16.6992
21.8	16.6992
21.805	16.6992
21.81	16.6113
21.815	16.6113
21.82	16.6113
21.825	16.5234
21.83	16.4355
21.835	16.4355
21.84	16.3477
21.845	16.2598
21.85	16.2598
21.855	16.1719
21.86	16.1719
21.865	16.084
21.87	16.084
21.875	15.9961
21.88	15.9961
21.885	15.9961
21.89	15.9082
21.895	15.9082
21.9	15.9082
21.905	15.8203
21.91	15.7324
21.915	15.7324
21.92	15.6445
21.925	15.6445
21.93	15.5566
21.935	15.5566
21.94	15.3809
21.945	15.3809
21.95	15.3809
21.955	15.293
21.96	15.2051
21.965	15.2051
21.97	15.1172
21.975	15.1172
21.98	15.0293
21.985	15.0293
21.99	14.9414
21.995	14.8535
22	14.7656
22.005	14.7656
22.01	14.6777
22.015	14.6777
22.02	14.5898
22.025	14.5898
22.03	14.502
22.035	14.502
22.04	14.4141
22.045	14.4141
22.05	14.4141
22.055	14.4141
22.06	14.2383
22.065	14.2383
22.07	14.2383
22.075	14.1504
22.08	14.1504
22.085	14.0625
22.09	13.9746
22.095	13.9746
22.1	13.9746
22.105	13.8867
22.11	13.7988
22.115	13.7988
22.12	13.7988
22.125	13.7109
22.13	13.7109
22.135	13.623
22.14	13.5352
22.145	13.5352
22.15	13.4473
22.155	13.3594
22.16	13.3594
22.165	13.2715
22.17	13.2715
22.175	13.1836
22.18	13.1836
22.185	13.0957
22.19	13.0957
22.195	13.0957
22.2	13.0078
22.205	12.9199
22.21	12.832
22.215	12.832
22.22	12.6562
22.225	12.6562
22.23	12.5684
22.235	12.5684
22.24	12.4805
22.245	12.4805
22.25	12.4805
22.255	12.4805
22.26	12.4805
22.265	12.3926
22.27	12.3926
22.275	12.3926
22.28	12.3047
22.285	12.2168
22.29	12.2168
22.295	12.1289
22.3	12.1289
22.305	12.1289
22.31	12.041
22.315	12.041
22.32	12.041
22.325	12.041
22.33	11.9531
22.335	11.9531
22.34	11.9531
22.345	11.9531
22.35	11.8652
22.355	11.8652
22.36	11.8652
22.365	11.7773
22.37	11.7773
22.375	11.6895
22.38	11.6895
22.385	11.6016
22.39	11.6016
22.395	11.6016
22.4	11.5137
22.405	11.5137
22.41	11.5137
22.415	11.5137
22.42	11.4258
22.425	11.4258
22.43	11.4258
22.435	11.3379
22.44	11.3379
22.445	11.25
22.45	11.25
22.455	11.1621
22.46	11.0742
22.465	11.0742
22.47	10.9863
22.475	10.9863
22.48	10.9863
22.485	10.8984
22.49	10.8105
22.495	10.8105
22.5	10.7227
22.505	10.7227
22.51	10.6348
22.515	10.6348
22.52	10.6348
22.525	10.5469
22.53	10.5469
22.535	10.459
22.54	10.459
22.545	10.459
22.55	10.459
22.555	10.2832
22.56	10.2832
22.565	10.1953
22.57	10.1953
22.575	10.1953
22.58	10.1074
22.585	10.1074
22.59	10.1074
22.595	10.0195
22.6	10.0195
22.605	10.0195
22.61	9.93164
22.615	9.84375
22.62	9.75586
22.625	9.75586
22.63	9.75586
22.635	9.66797
22.64	9.66797
22.645	9.58008
22.65	9.58008
22.655	9.58008
22.66	9.49219
22.665	9.49219
22.67	9.4043
22.675	9.4043
22.68	9.31641
22.685	9.22852
22.69	9.22852
22.695	9.22852
22.7	9.14063
22.705	9.14063
22.71	9.14063
22.715	9.05273
22.72	8.96484
22.725	8.96484
22.73	8.87695
22.735	8.87695
22.74	8.87695
22.745	8.78906
22.75	8.78906
22.755	8.70117
22.76	8.70117
22.765	8.70117
22.77	8.61328
22.775	8.52539
22.78	8.52539
22.785	8.52539
22.79	8.4375
22.795	8.4375
22.8	8.34961
22.805	8.34961
22.81	8.34961
22.815	8.34961
22.82	8.34961
22.825	8.26172
22.83	8.26172
22.835	8.26172
22.84	8.17383
22.845	8.17383
22.85	8.08594
22.855	8.08594
22.86	8.08594
22.865	7.99805
22.87	7.99805
22.875	7.99805
22.88	7.91016
22.885	7.91016
22.89	7.91016
22.895	7.91016
22.9	7.82227
22.905	7.82227
22.91	7.82227
22.915	7.82227
22.92	7.82227
22.925	7.73437
22.93	7.73437
22.935	7.73437
22.94	7.64648
22.945	7.64648
22.95	7.64648
22.955	7.55859
22.96	7.55859
22.965	7.55859
22.97	7.55859
22.975	7.55859
22.98	7.55859
22.985	7.4707
22.99	7.4707
22.995	7.4707
23	7.4707
23.005	7.4707
23.01	7.4707
23.015	7.4707
23.02	7.38281
23.025	7.38281
23.03	7.38281
23.035	7.38281
23.04	7.29492
23.045	7.29492
23.05	7.29492
23.055	7.29492
23.06	7.29492
23.065	7.29492
23.07	7.29492
23.075	7.29492
23.08	7.20703
23.085	7.20703
23.09	7.20703
23.095	7.20703
23.1	7.20703
23.105	7.11914
23.11	7.11914
23.115	7.11914
23.12	7.11914
23.125	7.11914
23.13	7.11914
23.135	7.11914
23.14	7.11914
23.145	7.03125
23.15	7.03125
23.155	7.03125
23.16	7.03125
23.165	7.03125
23.17	6.94336
23.175	6.94336
23.18	6.94336
23.185	6.94336
23.19	6.94336
23.195	6.94336
23.2	6.85547
23.205	6.85547
23.21	6.85547
23.215	6.85547
23.22	6.85547
23.225	6.85547
23.23	6.85547
23.235	6.85547
23.24	6.85547
23.245	6.76758
23.25	6.76758
23.255	6.76758
23.26	6.76758
23.265	6.76758
23.27	6.76758
23.275	6.67969
23.28	6.67969
23.285	6.67969
23.29	6.67969
23.295	6.67969
23.3	6.67969
23.305	6.5918
23.31	6.5918
23.315	6.5918
23.32	6.5918
23.325	6.5918
23.33	6.50391
23.335	6.50391
23.34	6.50391
23.345	6.50391
23.35	6.50391
23.355	6.50391
23.36	6.50391
23.365	6.50391
23.37	6.50391
23.375	6.50391
23.38	6.50391
23.385	6.41602
23.39	6.41602
23.395	6.41602
23.4	6.41602
23.405	6.41602
23.41	6.41602
23.415	6.32812
23.42	6.32812
23.425	6.32812
23.43	6.32812
23.435	6.32812
23.44	6.32812
23.445	6.32812
23.45	6.32812
23.455	6.32812
23.46	6.32812
23.465	6.32812
23.47	6.32812
23.475	6.32812
23.48	6.32812
23.485	6.32812
23.49	6.32812
23.495	6.32812
23.5	6.32812
23.505	6.24023
23.51	6.24023
23.515	6.24023
23.52	6.24023
23.525	6.24023
23.53	6.24023
23.535	6.24023
23.54	6.24023
23.545	6.24023
23.55	6.24023
23.555	6.24023
23.56	6.32812
23.565	6.24023
23.57	6.24023
23.575	6.32812
23.58	6.24023
23.585	6.24023
23.59	6.24023
23.595	6.24023
23.6	6.24023
23.605	6.24023
23.61	6.24023
23.615	6.24023
23.62	6.24023
23.625	6.24023
23.63	6.24023
23.635	6.24023
23.64	6.24023
23.645	6.24023
23.65	6.24023
23.655	6.24023
23.66	6.24023
23.665	6.24023
23.67	6.24023
23.675	6.24023
23.68	6.24023
23.685	6.24023
23.69	6.24023
23.695	6.24023
23.7	6.24023
23.705	6.24023
23.71	6.24023
23.715	6.24023
23.72	6.32812
23.725	6.24023
23.73	6.24023
23.735	6.24023
23.74	6.24023
23.745	6.24023
23.75	6.24023
23.755	6.24023
23.76	6.24023
23.765	6.24023
23.77	6.24023
23.775	6.24023
23.78	6.24023
23.785	6.24023
23.79	6.24023
23.795	6.24023
23.8	6.24023
23.805	6.24023
23.81	6.24023
23.815	6.24023
23.82	6.24023
23.825	6.24023
23.83	6.24023
23.835	6.24023
23.84	6.24023
23.845	6.24023
23.85	6.24023
23.855	6.24023
23.86	6.24023
23.865	6.24023
23.87	6.15234
23.875	6.15234
23.88	6.15234
23.885	6.15234
23.89	6.15234
23.895	6.15234
23.9	6.15234
23.905	6.15234
23.91	6.15234
23.915	6.15234
23.92	6.15234
23.925	6.15234
23.93	6.15234
23.935	6.15234
23.94	6.15234
23.945	6.15234
23.95	6.15234
23.955	6.15234
23.96	6.15234
23.965	6.15234
23.97	6.15234
23.975	6.15234
23.98	6.15234
23.985	6.15234
23.99	6.15234
23.995	6.15234
24	6.15234
24.005	6.15234
24.01	6.15234
24.015	6.15234
24.02	6.15234
24.025	6.15234
24.03	6.15234
24.035	6.15234
24.04	6.15234
24.045	6.15234
24.05	6.15234
24.055	6.15234
24.06	6.15234
24.065	6.15234
24.07	6.15234
24.075	6.15234
24.08	6.15234
24.085	6.15234
24.09	6.15234
24.095	6.15234
24.1	6.15234
24.105	6.15234
24.11	6.15234
24.115	6.15234
24.12	6.15234
24.125	6.15234
24.13	6.15234
24.135	6.15234
24.14	6.15234
24.145	6.15234
24.15	6.15234
24.155	6.15234
24.16	6.15234
24.165	6.15234
24.17	6.15234
24.175	6.15234
24.18	6.15234
24.185	6.15234
24.19	6.15234
24.195	6.15234
24.2	6.15234
24.205	6.15234
24.21	6.15234
24.215	6.15234
24.22	6.15234
24.225	6.15234
24.23	6.15234
24.235	6.15234
24.24	6.15234
24.245	6.15234
24.25	6.15234
24.255	6.24023
24.26	6.24023
24.265	6.24023
24.27	6.24023
24.275	6.24023
24.28	6.24023
24.285	6.24023
24.29	6.24023
24.295	6.24023
24.3	6.24023
24.305	6.24023
24.31	6.24023
24.315	6.24023
24.32	6.24023
24.325	6.24023
24.33	6.24023
24.335	6.24023
24.34	6.24023
24.345	6.24023
24.35	6.24023
24.355	6.24023
24.36	6.32812
24.365	6.32812
24.37	6.32812
24.375	6.32812
24.38	6.32812
24.385	6.32812
24.39	6.32812
24.395	6.32812
24.4	6.32812
24.405	6.32812
24.41	6.32812
24.415	6.41602
24.42	6.41602
24.425	6.41602
24.43	6.41602
24.435	6.41602
24.44	6.41602
24.445	6.41602
24.45	6.41602
24.455	6.41602
24.46	6.41602
24.465	6.41602
24.47	6.41602
24.475	6.41602
24.48	6.41602
24.485	6.41602
24.49	6.41602
24.495	6.41602
24.5	6.41602
24.505	6.41602
24.51	6.41602
24.515	6.41602
24.52	6.41602
24.525	6.41602
24.53	6.41602
24.535	6.41602
24.54	6.41602
24.545	6.41602
24.55	6.41602
24.555	6.41602
24.56	6.41602
24.565	6.41602
24.57	6.41602
24.575	6.41602
24.58	6.41602
24.585	6.41602
24.59	6.41602
24.595	6.41602
24.6	6.41602
24.605	6.41602
24.61	6.41602
24.615	6.41602
24.62	6.41602
24.625	6.41602
24.63	6.41602
24.635	6.41602
24.64	6.41602
24.645	6.41602
24.65	6.41602
24.655	6.41602
24.66	6.41602
24.665	6.41602
24.67	6.41602
24.675	6.41602
24.68	6.41602
24.685	6.41602
24.69	6.41602
24.695	6.41602
24.7	6.41602
24.705	6.41602
24.71	6.41602
24.715	6.41602
24.72	6.41602
24.725	6.41602
24.73	6.41602
24.735	6.41602
24.74	6.41602
24.745	6.41602
24.75	6.41602
24.755	6.41602
24.76	6.41602
24.765	6.41602
24.77	6.41602
24.775	6.41602
24.78	6.41602
24.785	6.41602
24.79	6.41602
24.795	6.41602
24.8	6.41602
24.805	6.41602
24.81	6.41602
24.815	6.41602
24.82	6.41602
24.825	6.41602
24.83	6.41602
24.835	6.41602
24.84	6.41602
24.845	6.41602
24.85	6.41602
24.855	6.41602
24.86	6.41602
24.865	6.41602
24.87	6.41602
24.875	6.41602
24.88	6.50391
24.885	6.50391
24.89	6.41602
24.895	6.41602
24.9	6.41602
24.905	6.41602
24.91	6.41602
24.915	6.41602
24.92	6.41602
24.925	6.41602
24.93	6.41602
24.935	6.41602
24.94	6.41602
24.945	6.41602
24.95	6.41602
24.955	6.50391
24.96	6.50391
24.965	6.50391
24.97	6.50391
24.975	6.50391
24.98	6.50391
24.985	6.50391
24.99	6.50391
24.995	6.50391
25	6.50391
25.005	6.50391
25.01	6.50391
25.015	6.50391
25.02	6.50391
25.025	6.50391
25.03	6.50391
25.035	6.50391
25.04	6.50391
25.045	6.50391
25.05	6.50391
25.055	6.50391
25.06	6.50391
25.065	6.50391
25.07	6.50391
25.075	6.5918
25.08	6.5918
25.085	6.5918
25.09	6.5918
25.095	6.5918
25.1	6.5918
25.105	6.5918
25.11	6.5918
25.115	6.5918
25.12	6.5918
25.125	6.5918
25.13	6.5918
25.135	6.5918
25.14	6.5918
25.145	6.67969
25.15	6.67969
25.155	6.67969
25.16	6.67969
25.165	6.67969
25.17	6.5918
25.175	6.67969
25.18	6.67969
25.185	6.67969
25.19	6.67969
25.195	6.67969
25.2	6.67969
25.205	6.5918
25.21	6.67969
25.215	6.5918
25.22	6.67969
25.225	6.5918
25.23	6.50391
25.235	6.5918
25.24	6.50391
25.245	6.50391
25.25	6.5918
25.255	6.50391
25.26	6.50391
25.265	6.5918
25.27	6.50391
25.275	6.41602
25.28	6.50391
25.285	6.41602
25.29	6.41602
25.295	6.32812
25.3	6.32812
25.305	6.32812
25.31	6.32812
25.315	6.32812
25.32	6.32812
25.325	6.32812
25.33	6.32812
25.335	6.32812
25.34	6.24023
25.345	6.24023
25.35	6.24023
25.355	6.24023
25.36	6.15234
25.365	6.15234
25.37	6.15234
25.375	6.15234
25.38	6.15234
25.385	6.15234
25.39	6.15234
25.395	6.15234
25.4	6.15234
25.405	6.15234
25.41	6.15234
25.415	6.06445
25.42	6.06445
25.425	6.06445
25.43	5.97656
25.435	6.06445
25.44	6.06445
25.445	6.06445
25.45	6.06445
25.455	6.06445
25.46	6.06445
25.465	6.06445
25.47	6.06445
25.475	6.06445
25.48	6.06445
25.485	6.06445
25.49	5.88867
25.495	5.88867
25.5	5.88867
25.505	5.80078
25.51	5.80078
25.515	5.88867
25.52	5.88867
25.525	5.88867
25.53	5.88867
25.535	5.80078
25.54	5.80078
25.545	5.80078
25.55	5.71289
25.555	5.625
25.56	5.625
25.565	5.53711
25.57	5.53711
25.575	5.53711
25.58	5.53711
25.585	5.44922
25.59	5.44922
25.595	5.36133
25.6	5.27344
25.605	5.18555
25.61	5.09766
25.615	5.09766
25.62	5.09766
25.625	5.00977
25.63	4.92188
25.635	4.92188
25.64	4.92188
25.645	4.92188
25.65	4.83398
25.655	4.74609
25.66	4.74609
25.665	4.6582
25.67	4.57031
25.675	4.57031
25.68	4.48242
25.685	4.39453
25.69	4.39453
25.695	4.39453
25.7	4.30664
25.705	4.30664
25.71	4.30664
25.715	4.21875
25.72	4.13086
25.725	4.13086
25.73	4.13086
25.735	4.04297
25.74	3.95508
25.745	3.95508
25.75	3.95508
25.755	3.95508
25.76	3.95508
25.765	3.86719
25.77	3.86719
25.775	3.86719
25.78	3.7793
25.785	3.7793
25.79	3.7793
25.795	3.7793
25.8	3.7793
25.805	3.7793
25.81	3.7793
25.815	3.7793
25.82	3.7793
25.825	3.86719
25.83	3.7793
25.835	3.7793
25.84	3.86719
25.845	3.86719
25.85	3.86719
25.855	3.95508
25.86	3.95508
25.865	3.95508
25.87	4.04297
25.875	4.04297
25.88	4.04297
25.885	4.13086
25.89	4.21875
25.895	4.21875
25.9	4.30664
25.905	4.30664
25.91	4.39453
25.915	4.48242
25.92	4.57031
25.925	4.6582
25.93	4.6582
25.935	4.74609
25.94	4.83398
25.945	4.92188
25.95	4.92188
25.955	5.09766
25.96	5.09766
25.965	5.18555
25.97	5.36133
25.975	5.36133
25.98	5.36133
25.985	5.53711
25.99	5.53711
25.995	5.53711
26	5.80078
26.005	5.80078
26.01	5.88867
26.015	5.97656
26.02	5.97656
26.025	6.06445
26.03	6.32812
26.035	6.32812
26.04	6.5918
26.045	6.5918
26.05	6.67969
26.055	6.67969
26.06	6.76758
26.065	6.76758
26.07	6.94336
26.075	7.03125
26.08	7.03125
26.085	7.11914
26.09	7.11914
26.095	7.20703
26.1	7.29492
26.105	7.29492
26.11	7.29492
26.115	7.4707
26.12	7.4707
26.125	7.4707
26.13	7.55859
26.135	7.55859
26.14	7.64648
26.145	7.64648
26.15	7.64648
26.155	7.64648
26.16	7.73437
26.165	7.73437
26.17	7.82227
26.175	7.82227
26.18	7.82227
26.185	7.82227
26.19	7.91016
26.195	7.91016
26.2	7.91016
26.205	7.91016
26.21	7.91016
26.215	7.91016
26.22	7.91016
26.225	7.91016
26.23	7.91016
26.235	7.99805
26.24	7.99805
26.245	7.99805
26.25	7.99805
26.255	7.99805
26.26	7.99805
26.265	7.99805
26.27	7.99805
26.275	7.99805
26.28	7.99805
26.285	7.99805
26.29	7.99805
26.295	7.99805
26.3	7.99805
26.305	7.99805
26.31	7.99805
26.315	7.99805
26.32	7.99805
26.325	7.99805
26.33	7.99805
26.335	7.99805
26.34	7.99805
26.345	7.91016
26.35	7.91016
26.355	7.91016
26.36	7.91016
26.365	7.91016
26.37	7.91016
26.375	7.91016
26.38	7.91016
26.385	7.91016
26.39	7.91016
26.395	7.91016
26.4	7.91016
26.405	7.91016
26.41	7.91016
26.415	7.91016
26.42	7.91016
26.425	7.91016
26.43	7.91016
26.435	7.91016
26.44	7.91016
26.445	7.91016
26.45	7.91016
26.455	7.99805
26.46	7.99805
26.465	7.99805
26.47	7.99805
26.475	7.99805
26.48	7.99805
26.485	7.99805
26.49	7.99805
26.495	7.99805
26.5	7.99805
26.505	7.99805
26.51	7.99805
26.515	7.99805
26.52	8.08594
26.525	8.08594
26.53	8.08594
26.535	8.08594
26.54	8.08594
26.545	8.08594
26.55	8.08594
26.555	8.08594
26.56	8.17383
26.565	8.17383
26.57	8.08594
26.575	8.08594
26.58	8.17383
26.585	8.17383
26.59	8.17383
26.595	8.17383
26.6	8.17383
26.605	8.17383
26.61	8.17383
26.615	8.17383
26.62	8.17383
26.625	8.17383
26.63	8.17383
26.635	8.17383
26.64	8.17383
26.645	8.17383
26.65	8.17383
26.655	8.17383
26.66	8.17383
26.665	8.26172
26.67	8.26172
26.675	8.17383
26.68	8.26172
26.685	8.26172
26.69	8.17383
26.695	8.26172
26.7	8.26172
26.705	8.26172
26.71	8.26172
26.715	8.26172
26.72	8.26172
26.725	8.26172
26.73	8.26172
26.735	8.26172
26.74	8.17383
26.745	8.17383
26.75	8.17383
26.755	8.17383
26.76	8.17383
26.765	8.17383
26.77	8.17383
26.775	8.17383
26.78	8.17383
26.785	8.17383
26.79	8.17383
26.795	8.17383
26.8	8.17383
26.805	8.17383
26.81	8.17383
26.815	8.17383
26.82	8.17383
26.825	8.17383
26.83	8.17383
26.835	8.08594
26.84	8.08594
26.845	8.08594
26.85	8.08594
26.855	8.08594
26.86	8.08594
26.865	8.08594
26.87	8.08594
26.875	8.08594
26.88	7.99805
26.885	7.99805
26.89	7.99805
26.895	7.99805
26.9	7.99805
26.905	7.99805
26.91	7.99805
26.915	7.99805
26.92	7.99805
26.925	7.99805
26.93	7.91016
26.935	7.91016
26.94	7.91016
26.945	7.91016
26.95	7.91016
26.955	7.91016
26.96	7.91016
26.965	7.91016
26.97	7.82227
26.975	7.82227
26.98	7.82227
26.985	7.82227
26.99	7.82227
26.995	7.82227
27	7.82227
27.005	7.82227
27.01	7.73437
27.015	7.82227
27.02	7.73437
27.025	7.73437
27.03	7.73437
27.035	7.73437
27.04	7.73437
27.045	7.64648
27.05	7.73437
27.055	7.64648
27.06	7.64648
27.065	7.64648
27.07	7.64648
27.075	7.64648
27.08	7.64648
27.085	7.64648
27.09	7.55859
27.095	7.55859
27.1	7.55859
27.105	7.55859
27.11	7.55859
27.115	7.55859
27.12	7.55859
27.125	7.4707
27.13	7.4707
27.135	7.4707
27.14	7.4707
27.145	7.4707
27.15	7.4707
27.155	7.4707
27.16	7.4707
27.165	7.38281
27.17	7.38281
27.175	7.38281
27.18	7.38281
27.185	7.38281
27.19	7.38281
27.195	7.38281
27.2	7.38281
27.205	7.38281
27.21	7.38281
27.215	7.29492
27.22	7.29492
27.225	7.29492
27.23	7.29492
27.235	7.29492
27.24	7.29492
27.245	7.29492
27.25	7.29492
27.255	7.29492
27.26	7.29492
27.265	7.29492
27.27	7.29492
27.275	7.20703
27.28	7.29492
27.285	7.20703
27.29	7.20703
27.295	7.20703
27.3	7.20703
27.305	7.20703
27.31	7.20703
27.315	7.20703
27.32	7.20703
27.325	7.20703
27.33	7.20703
27.335	7.20703
27.34	7.20703
27.345	7.20703
27.35	7.20703
27.355	7.20703
27.36	7.20703
27.365	7.20703
27.37	7.20703
27.375	7.20703
27.38	7.20703
27.385	7.20703
27.39	7.20703
27.395	7.20703
27.4	7.20703
27.405	7.20703
27.41	7.20703
27.415	7.20703
27.42	7.11914
27.425	7.11914
27.43	7.11914
27.435	7.11914
27.44	7.11914
27.445	7.11914
27.45	7.11914
27.455	7.11914
27.46	7.11914
27.465	7.11914
27.47	7.11914
27.475	7.11914
27.48	7.11914
27.485	7.11914
27.49	7.11914
27.495	7.11914
27.5	7.11914
27.505	7.11914
27.51	7.11914
27.515	7.11914
27.52	7.11914
27.525	7.11914
27.53	7.11914
27.535	7.11914
27.54	7.11914
27.545	7.11914
27.55	7.11914
27.555	7.11914
27.56	7.03125
27.565	7.03125
27.57	7.03125
27.575	7.03125
27.58	7.03125
27.585	7.03125
27.59	7.03125
27.595	7.03125
27.6	7.03125
27.605	7.03125
27.61	7.03125
27.615	7.03125
27.62	7.03125
27.625	7.03125
27.63	7.03125
27.635	7.03125
27.64	7.03125
27.645	7.03125
27.65	7.03125
27.655	7.03125
27.66	7.03125
27.665	6.94336
27.67	6.94336
27.675	7.03125
27.68	6.94336
27.685	6.94336
27.69	6.94336
27.695	6.94336
27.7	6.94336
27.705	6.94336
27.71	6.94336
27.715	6.94336
27.72	6.94336
27.725	6.94336
27.73	6.94336
27.735	6.94336
27.74	6.94336
27.745	6.94336
27.75	6.94336
27.755	6.94336
27.76	6.94336
27.765	6.94336
27.77	6.94336
27.775	6.94336
27.78	6.94336
27.785	6.94336
27.79	6.94336
27.795	6.94336
27.8	6.94336
27.805	6.94336
27.81	6.94336
27.815	6.94336
27.82	6.94336
27.825	6.94336
27.83	6.85547
27.835	6.85547
27.84	6.85547
27.845	6.85547
27.85	6.85547
27.855	6.85547
27.86	6.85547
27.865	6.85547
27.87	6.85547
27.875	6.85547
27.88	6.85547
27.885	6.85547
27.89	6.85547
27.895	6.85547
27.9	6.85547
27.905	6.85547
27.91	6.85547
27.915	6.85547
27.92	6.85547
27.925	6.85547
27.93	6.85547
27.935	6.85547
27.94	6.85547
27.945	6.85547
27.95	6.85547
27.955	6.85547
27.96	6.85547
27.965	6.85547
27.97	6.85547
27.975	6.85547
27.98	6.85547
27.985	6.85547
27.99	6.85547
27.995	6.85547
28	6.85547
28.005	6.85547
28.01	6.85547
28.015	6.85547
28.02	6.85547
28.025	6.85547
28.03	6.85547
28.035	6.85547
28.04	6.85547
28.045	6.85547
28.05	6.85547
28.055	6.85547
28.06	6.85547
28.065	6.85547
28.07	6.85547
28.075	6.85547
28.08	6.85547
28.085	6.85547
28.09	6.85547
28.095	6.85547
28.1	6.85547
28.105	6.85547
28.11	6.85547
28.115	6.85547
28.12	6.85547
28.125	6.85547
28.13	6.85547
28.135	6.85547
28.14	6.85547
28.145	6.85547
28.15	6.85547
28.155	6.85547
28.16	6.85547
28.165	6.85547
28.17	6.85547
28.175	6.85547
28.18	6.85547
28.185	6.85547
28.19	6.85547
28.195	6.85547
28.2	6.94336
28.205	6.94336
28.21	6.94336
28.215	6.94336
28.22	6.94336
28.225	6.94336
28.23	6.94336
28.235	6.94336
28.24	6.94336
28.245	6.94336
28.25	6.94336
28.255	6.94336
28.26	6.94336
28.265	6.94336
28.27	6.94336
28.275	6.94336
28.28	6.94336
28.285	6.94336
28.29	6.94336
28.295	6.94336
28.3	6.94336
28.305	6.94336
28.31	6.94336
28.315	6.94336
28.32	6.94336
28.325	6.94336
28.33	6.94336
28.335	6.94336
28.34	6.94336
28.345	6.94336
28.35	6.94336
28.355	6.94336
28.36	6.94336
28.365	6.94336
28.37	6.94336
28.375	6.94336
28.38	6.94336
28.385	6.94336
28.39	6.94336
28.395	6.94336
28.4	6.94336
28.405	6.94336
28.41	6.94336
28.415	6.94336
28.42	6.94336
28.425	6.94336
28.43	6.94336
28.435	6.94336
28.44	6.94336
28.445	6.94336
28.45	6.94336
28.455	6.94336
28.46	6.94336
28.465	6.94336
28.47	6.94336
28.475	6.94336
28.48	7.03125
28.485	6.94336
28.49	7.03125
28.495	7.03125
28.5	7.03125
28.505	7.03125
28.51	7.03125
28.515	7.03125
28.52	7.03125
28.525	7.03125
28.53	7.03125
28.535	7.03125
28.54	7.03125
28.545	7.03125
28.55	7.03125
28.555	7.03125
28.56	7.11914
28.565	7.11914
28.57	7.11914
28.575	7.11914
28.58	7.11914
28.585	7.11914
28.59	7.11914
28.595	7.11914
28.6	7.11914
28.605	7.11914
28.61	7.11914
28.615	7.11914
28.62	7.11914
28.625	7.11914
28.63	7.11914
28.635	7.20703
28.64	7.20703
28.645	7.20703
28.65	7.20703
28.655	7.20703
28.66	7.20703
28.665	7.20703
28.67	7.20703
28.675	7.20703
28.68	7.20703
28.685	7.29492
28.69	7.29492
28.695	7.29492
28.7	7.29492
28.705	7.29492
28.71	7.29492
28.715	7.29492
28.72	7.29492
28.725	7.29492
28.73	7.29492
28.735	7.29492
28.74	7.29492
28.745	7.29492
28.75	7.29492
28.755	7.29492
28.76	7.29492
28.765	7.29492
28.77	7.29492
28.775	7.38281
28.78	7.38281
28.785	7.38281
28.79	7.38281
28.795	7.38281
28.8	7.38281
28.805	7.38281
28.81	7.38281
28.815	7.38281
28.82	7.38281
28.825	7.38281
28.83	7.38281
28.835	7.38281
28.84	7.38281
28.845	7.38281
28.85	7.38281
28.855	7.38281
28.86	7.38281
28.865	7.38281
28.87	7.38281
28.875	7.38281
28.88	7.38281
28.885	7.38281
28.89	7.38281
28.895	7.38281
28.9	7.38281
28.905	7.38281
28.91	7.38281
28.915	7.38281
28.92	7.38281
28.925	7.38281
28.93	7.38281
28.935	7.38281
28.94	7.38281
28.945	7.38281
28.95	7.38281
28.955	7.38281
28.96	7.38281
28.965	7.38281
28.97	7.38281
28.975	7.38281
28.98	7.38281
28.985	7.38281
28.99	7.38281
28.995	7.38281
29	7.38281
29.005	7.38281
29.01	7.38281
29.015	7.38281
29.02	7.38281
29.025	7.38281
29.03	7.38281
29.035	7.38281
29.04	7.38281
29.045	7.38281
29.05	7.38281
29.055	7.38281
29.06	7.38281
29.065	7.38281
29.07	7.38281
29.075	7.38281
29.08	7.38281
29.085	7.38281
29.09	7.38281
29.095	7.38281
29.1	7.38281
29.105	7.38281
29.11	7.38281
29.115	7.38281
29.12	7.38281
29.125	7.38281
29.13	7.38281
29.135	7.38281
29.14	7.38281
29.145	7.38281
29.15	7.38281
29.155	7.38281
29.16	7.38281
29.165	7.38281
29.17	7.38281
29.175	7.38281
29.18	7.38281
29.185	7.38281
29.19	7.38281
29.195	7.38281
29.2	7.38281
29.205	7.38281
29.21	7.38281
29.215	7.38281
29.22	7.38281
29.225	7.29492
29.23	7.29492
29.235	7.29492
29.24	7.29492
29.245	7.29492
29.25	7.29492
29.255	7.29492
29.26	7.29492
29.265	7.29492
29.27	7.29492
29.275	7.29492
29.28	7.29492
29.285	7.29492
29.29	7.38281
29.295	7.29492
29.3	7.38281
29.305	7.38281
29.31	7.29492
29.315	7.38281
29.32	7.29492
29.325	7.38281
29.33	7.38281
29.335	7.38281
29.34	7.38281
29.345	7.38281
29.35	7.38281
29.355	7.38281
29.36	7.38281
29.365	7.38281
29.37	7.38281
29.375	7.38281
29.38	7.38281
29.385	7.4707
29.39	7.4707
29.395	7.4707
29.4	7.4707
29.405	7.4707
29.41	7.4707
29.415	7.4707
29.42	7.4707
29.425	7.4707
29.43	7.4707
29.435	7.4707
29.44	7.4707
29.445	7.4707
29.45	7.4707
29.455	7.4707
29.46	7.4707
29.465	7.55859
29.47	7.55859
29.475	7.55859
29.48	7.55859
29.485	7.55859
29.49	7.55859
29.495	7.55859
29.5	7.55859
29.505	7.55859
29.51	7.55859
29.515	7.55859
29.52	7.55859
29.525	7.55859
29.53	7.55859
29.535	7.55859
29.54	7.55859
29.545	7.55859
29.55	7.55859
29.555	7.55859
29.56	7.55859
29.565	7.55859
29.57	7.55859
29.575	7.55859
29.58	7.55859
29.585	7.55859
29.59	7.55859
29.595	7.55859
29.6	7.55859
29.605	7.55859
29.61	7.4707
29.615	7.55859
29.62	7.4707
29.625	7.4707
29.63	7.4707
29.635	7.4707
29.64	7.4707
29.645	7.4707
29.65	7.4707
29.655	7.4707
29.66	7.4707
29.665	7.4707
29.67	7.4707
29.675	7.4707
29.68	7.4707
29.685	7.4707
29.69	7.4707
29.695	7.4707
29.7	7.4707
29.705	7.4707
29.71	7.4707
29.715	7.4707
29.72	7.4707
29.725	7.4707
29.73	7.4707
29.735	7.4707
29.74	7.4707
29.745	7.4707
29.75	7.38281
29.755	7.38281
29.76	7.38281
29.765	7.38281
29.77	7.38281
29.775	7.38281
29.78	7.38281
29.785	7.38281
29.79	7.38281
29.795	7.38281
29.8	7.38281
29.805	7.38281
29.81	7.38281
29.815	7.38281
29.82	7.38281
29.825	7.38281
29.83	7.38281
29.835	7.38281
29.84	7.38281
29.845	7.38281
29.85	7.38281
29.855	7.38281
29.86	7.38281
29.865	7.38281
29.87	7.38281
29.875	7.38281
29.88	7.38281
29.885	7.38281
29.89	7.38281
29.895	7.38281
29.9	7.38281
29.905	7.38281
29.91	7.38281
29.915	7.38281
29.92	7.38281
29.925	7.38281
29.93	7.38281
29.935	7.38281
29.94	7.38281
29.945	7.38281
29.95	7.38281
29.955	7.38281
29.96	7.38281
29.965	7.38281
29.97	7.38281
29.975	7.38281
29.98	7.38281
29.985	7.38281
29.99	7.38281
29.995	7.38281
30	7.38281
30.005	7.38281
30.01	7.38281
30.015	7.38281
30.02	7.4707
30.025	7.4707
30.03	7.4707
30.035	7.4707
30.04	7.4707
30.045	7.4707
30.05	7.4707
30.055	7.4707
30.06	7.4707
30.065	7.4707
30.07	7.4707
30.075	7.4707
30.08	7.4707
30.085	7.4707
30.09	7.55859
30.095	7.4707
30.1	7.55859
30.105	7.55859
30.11	7.55859
30.115	7.55859
30.12	7.55859
30.125	7.55859
30.13	7.55859
30.135	7.55859
30.14	7.55859
30.145	7.55859
30.15	7.55859
30.155	7.55859
30.16	7.64648
30.165	7.64648
30.17	7.64648
30.175	7.64648
30.18	7.64648
30.185	7.64648
30.19	7.64648
30.195	7.64648
30.2	7.73437
30.205	7.73437
30.21	7.73437
30.215	7.73437
30.22	7.82227
30.225	7.82227
30.23	7.91016
30.235	7.99805
30.24	7.99805
30.245	8.08594
30.25	8.17383
30.255	8.17383
30.26	8.34961
30.265	8.34961
30.27	8.52539
30.275	8.52539
30.28	8.61328
30.285	8.78906
30.29	8.87695
30.295	9.31641
30.3	9.4043
30.305	9.49219
30.31	9.75586
30.315	9.93164
30.32	10.0195
30.325	10.2832
30.33	10.3711
30.335	10.5469
30.34	10.9863
30.345	11.1621
30.35	11.3379
30.355	11.7773
30.36	11.9531
30.365	12.1289
30.37	12.7441
30.375	12.832
30.38	13.0078
30.385	13.4473
30.39	13.623
30.395	13.7988
30.4	14.502
30.405	14.6777
30.41	14.9414
30.415	15.3809
30.42	15.5566
30.425	15.7324
30.43	16.4355
30.435	16.6113
30.44	16.875
30.445	17.3145
30.45	17.4902
30.455	17.666
30.46	18.3691
30.465	18.5449
30.47	18.8086
30.475	19.3359
30.48	19.5117
30.485	19.6875
30.49	20.3027
30.495	20.4785
30.5	20.918
30.505	21.0937
30.51	21.2695
30.515	21.709
30.52	21.8848
30.525	21.9727
30.53	22.3242
30.535	22.4121
30.54	22.5879
30.545	22.7637
30.55	22.8516
30.555	22.9395
30.56	23.2031
30.565	23.291
30.57	23.4668
30.575	23.4668
30.58	23.5547
30.585	23.4668
30.59	23.5547
30.595	23.4668
30.6	23.4668
30.605	23.4668
30.61	23.2031
30.615	23.1152
30.62	22.8516
30.625	22.7637
30.63	22.3242
30.635	22.2363
30.64	22.1484
30.645	21.7969
30.65	21.6211
30.655	21.5332
30.66	20.918
30.665	20.8301
30.67	20.6543
30.675	20.127
30.68	19.9512
30.685	19.7754
30.69	19.248
30.695	19.0723
30.7	18.8965
30.705	18.1934
30.71	18.1055
30.715	17.2266
30.72	17.0508
30.725	16.2598
30.73	16.1719
30.735	15.9961
30.74	15.4687
30.745	15.293
30.75	15.2051
30.755	14.7656
30.76	14.5898
30.765	14.4141
30.77	13.9746
30.775	13.8867
30.78	13.7109
30.785	13.3594
30.79	13.1836
30.795	13.0957
30.8	12.4805
30.805	12.3926
30.81	12.041
30.815	11.8652
30.82	11.7773
30.825	11.4258
30.83	11.3379
30.835	11.25
30.84	10.7227
30.845	10.6348
30.85	10.459
30.855	10.1953
30.86	10.1074
30.865	10.0195
30.87	9.66797
30.875	9.58008
30.88	9.22852
30.885	9.22852
30.89	9.05273
30.895	8.87695
30.9	8.70117
30.905	8.61328
30.91	8.34961
30.915	8.34961
30.92	8.26172
30.925	7.91016
30.93	7.82227
30.935	7.73437
30.94	7.55859
30.945	7.4707
30.95	7.38281
30.955	7.03125
30.96	7.03125
30.965	6.5918
30.97	6.50391
30.975	6.41602
30.98	6.15234
30.985	6.06445
30.99	6.06445
30.995	5.71289
31	5.625
31.005	5.36133
31.01	5.27344
31.015	5.18555
31.02	5.00977
31.025	4.92188
31.03	4.83398
31.035	4.57031
31.04	4.48242
31.045	4.39453
31.05	4.13086
31.055	4.04297
31.06	3.95508
31.065	3.69141
31.07	3.60352
31.075	3.51563
31.08	3.16406
31.085	3.07617
31.09	2.98828
31.095	2.8125
31.1	2.72461
31.105	2.63672
31.11	2.46094
31.115	2.37305
31.12	2.02148
31.125	1.93359
31.13	1.8457
31.135	1.75781
31.14	1.66992
31.145	1.58203
31.15	1.31836
31.155	1.23047
31.16	1.14258
31.165	1.05469
31.17	0.966797
31.175	0.878906
31.18	0.791016
31.185	0.703125
31.19	0.615234
31.195	0.527344
31.2	0.439453
31.205	0.439453
31.21	0.175781
31.215	0.0878906
31.22	0.0878906
31.225	0
31.23	-0.0878906
31.235	-0.0878906
31.24	-0.263672
31.245	-0.263672
31.25	-0.351562
31.255	-0.351562
31.26	-0.439453
31.265	-0.527344
31.27	-0.527344
31.275	-0.615234
31.28	-0.703125
31.285	-0.703125
31.29	-0.703125
31.295	-0.791016
31.3	-0.878906
31.305	-0.878906
31.31	-0.966797
31.315	-0.966797
31.32	-0.966797
31.325	-1.05469
31.33	-1.05469
31.335	-1.14258
31.34	-1.14258
31.345	-1.14258
31.35	-1.14258
31.355	-1.14258
31.36	-1.23047
31.365	-1.23047
31.37	-1.31836
31.375	-1.31836
31.38	-1.40625
31.385	-1.40625
31.39	-1.40625
31.395	-1.40625
31.4	-1.40625
31.405	-1.40625
31.41	-1.40625
31.415	-1.40625
31.42	-1.49414
31.425	-1.49414
31.43	-1.49414
31.435	-1.49414
31.44	-1.49414
31.445	-1.58203
31.45	-1.58203
31.455	-1.66992
31.46	-1.66992
31.465	-1.66992
31.47	-1.66992
31.475	-1.66992
31.48	-1.66992
31.485	-1.66992
31.49	-1.66992
31.495	-1.66992
31.5	-1.75781
31.505	-1.75781
31.51	-1.8457
31.515	-1.8457
31.52	-1.8457
31.525	-1.8457
31.53	-1.8457
31.535	-1.8457
31.54	-1.8457
31.545	-1.8457
31.55	-1.8457
31.555	-1.93359
31.56	-1.93359
31.565	-2.02148
31.57	-2.02148
31.575	-2.02148
31.58	-2.10938
31.585	-2.10938
31.59	-2.10938
31.595	-2.19727
31.6	-2.19727
31.605	-2.19727
31.61	-2.19727
31.615	-2.19727
31.62	-2.19727
31.625	-2.28516
31.63	-2.28516
31.635	-2.28516
31.64	-2.37305
31.645	-2.37305
31.65	-2.37305
31.655	-2.37305
31.66	-2.37305
31.665	-2.37305
31.67	-2.37305
31.675	-2.37305
31.68	-2.37305
31.685	-2.37305
31.69	-2.46094
31.695	-2.46094
31.7	-2.46094
31.705	-2.46094
31.71	-2.46094
31.715	-2.46094
31.72	-2.37305
31.725	-2.37305
31.73	-2.37305
31.735	-2.37305
31.74	-2.37305
31.745	-2.28516
31.75	-2.28516
31.755	-2.28516
31.76	-2.28516
31.765	-2.28516
31.77	-2.28516
31.775	-2.28516
31.78	-2.28516
31.785	-2.28516
31.79	-2.19727
31.795	-2.19727
31.8	-2.10938
31.805	-2.02148
31.81	-1.93359
31.815	-1.93359
31.82	-1.93359
31.825	-1.93359
31.83	-1.93359
31.835	-1.8457
31.84	-1.8457
31.845	-1.8457
31.85	-1.8457
31.855	-1.75781
31.86	-1.75781
31.865	-1.66992
31.87	-1.58203
31.875	-1.58203
31.88	-1.49414
31.885	-1.40625
31.89	-1.31836
31.895	-1.31836
31.9	-1.31836
31.905	-1.23047
31.91	-1.23047
31.915	-1.14258
31.92	-1.05469
31.925	-1.05469
31.93	-0.966797
31.935	-0.966797
31.94	-0.966797
31.945	-0.791016
31.95	-0.791016
31.955	-0.703125
31.96	-0.615234
31.965	-0.615234
31.97	-0.527344
31.975	-0.439453
31.98	-0.439453
31.985	-0.351562
31.99	-0.351562
31.995	-0.263672
32	-0.263672
32.005	-0.175781
32.01	-0.175781
32.015	-0.0878906
32.02	0
32.025	0.0878906
32.03	0.0878906
32.035	0.263672
32.04	0.263672
32.045	0.351562
32.05	0.439453
32.055	0.439453
32.06	0.527344
32.065	0.527344
32.07	0.527344
32.075	0.615234
32.08	0.703125
32.085	0.703125
32.09	0.791016
32.095	0.791016
32.1	0.878906
32.105	0.966797
32.11	0.966797
32.115	0.966797
32.12	1.05469
32.125	1.14258
32.13	1.14258
32.135	1.14258
32.14	1.14258
32.145	1.14258
32.15	1.14258
32.155	1.23047
32.16	1.31836
32.165	1.31836
32.17	1.40625
32.175	1.40625
32.18	1.49414
32.185	1.49414
32.19	1.49414
32.195	1.49414
32.2	1.58203
32.205	1.58203
32.21	1.58203
32.215	1.66992
32.22	1.66992
32.225	1.66992
32.23	1.75781
32.235	1.75781
32.24	1.75781
32.245	1.8457
32.25	1.8457
32.255	1.8457
32.26	1.93359
32.265	1.93359
32.27	1.93359
32.275	1.93359
32.28	1.93359
32.285	1.93359
32.29	2.02148
32.295	2.02148
32.3	2.02148
32.305	2.02148
32.31	2.02148
32.315	2.10938
32.32	2.10938
32.325	2.19727
32.33	2.19727
32.335	2.19727
32.34	2.19727
32.345	2.19727
32.35	2.28516
32.355	2.28516
32.36	2.37305
32.365	2.37305
32.37	2.37305
32.375	2.37305
32.38	2.37305
32.385	2.46094
32.39	2.46094
32.395	2.46094
32.4	2.54883
32.405	2.54883
32.41	2.54883
32.415	2.63672
32.42	2.63672
32.425	2.63672
32.43	2.63672
32.435	2.72461
32.44	2.72461
32.445	2.72461
32.45	2.8125
32.455	2.8125
32.46	2.8125
32.465	2.90039
32.47	2.90039
32.475	2.98828
32.48	2.98828
32.485	2.98828
32.49	2.98828
32.495	3.07617
32.5	3.07617
32.505	3.16406
32.51	3.16406
32.515	3.16406
32.52	3.25195
32.525	3.25195
32.53	3.33984
32.535	3.33984
32.54	3.42773
32.545	3.42773
32.55	3.42773
32.555	3.42773
32.56	3.42773
32.565	3.51563
32.57	3.51563
32.575	3.60352
32.58	3.60352
32.585	3.60352
32.59	3.60352
32.595	3.69141
32.6	3.69141
32.605	3.7793
32.61	3.7793
32.615	3.7793
32.62	3.86719
32.625	3.86719
32.63	3.86719
32.635	3.86719
32.64	3.95508
32.645	3.95508
32.65	3.95508
32.655	3.95508
32.66	3.95508
32.665	4.04297
32.67	4.04297
32.675	4.13086
32.68	4.13086
32.685	4.13086
32.69	4.21875
32.695	4.21875
32.7	4.21875
32.705	4.30664
32.71	4.30664
32.715	4.30664
32.72	4.30664
32.725	4.30664
32.73	4.39453
32.735	4.39453
32.74	4.39453
32.745	4.48242
32.75	4.48242
32.755	4.57031
32.76	4.6582
32.765	4.6582
32.77	4.6582
32.775	4.6582
32.78	4.6582
32.785	4.74609
32.79	4.74609
32.795	4.74609
32.8	4.74609
32.805	4.74609
32.81	4.74609
32.815	4.83398
32.82	4.83398
32.825	4.83398
32.83	4.83398
32.835	4.92188
32.84	4.92188
32.845	4.92188
32.85	4.92188
32.855	4.92188
32.86	5.00977
32.865	5.00977
32.87	5.00977
32.875	5.00977
32.88	5.09766
32.885	5.00977
32.89	5.09766
32.895	5.09766
32.9	5.09766
32.905	5.18555
32.91	5.18555
32.915	5.18555
32.92	5.18555
32.925	5.18555
32.93	5.18555
32.935	5.27344
32.94	5.27344
32.945	5.27344
32.95	5.27344
32.955	5.27344
32.96	5.27344
32.965	5.27344
32.97	5.36133
32.975	5.36133
32.98	5.36133
32.985	5.36133
32.99	5.36133
32.995	5.44922
33	5.44922
33.005	5.44922
33.01	5.44922
33.015	5.44922
33.02	5.53711
33.025	5.53711
33.03	5.53711
33.035	5.53711
33.04	5.53711
33.045	5.53711
33.05	5.625
33.055	5.625
33.06	5.625
33.065	5.625
33.07	5.625
33.075	5.71289
33.08	5.71289
33.085	5.71289
33.09	5.71289
33.095	5.71289
33.1	5.71289
33.105	5.80078
33.11	5.80078
33.115	5.80078
33.12	5.80078
33.125	5.80078
33.13	5.80078
33.135	5.80078
33.14	5.88867
33.145	5.88867
33.15	5.88867
33.155	5.88867
33.16	5.88867
33.165	5.88867
33.17	5.88867
33.175	5.88867
33.18	5.88867
33.185	5.97656
33.19	5.97656
33.195	5.97656
33.2	5.97656
33.205	5.97656
33.21	5.97656
33.215	5.97656
33.22	5.97656
33.225	5.97656
33.23	5.97656
33.235	6.06445
33.24	6.06445
33.245	6.06445
33.25	6.06445
33.255	6.06445
33.26	6.06445
33.265	6.06445
33.27	6.06445
33.275	6.06445
33.28	6.06445
33.285	6.06445
33.29	6.15234
33.295	6.06445
33.3	6.06445
33.305	6.15234
33.31	6.15234
33.315	6.15234
33.32	6.15234
33.325	6.15234
33.33	6.15234
33.335	6.15234
33.34	6.15234
33.345	6.15234
33.35	6.15234
33.355	6.15234
33.36	6.24023
33.365	6.24023
33.37	6.24023
33.375	6.24023
33.38	6.24023
33.385	6.24023
33.39	6.24023
33.395	6.24023
33.4	6.24023
33.405	6.24023
33.41	6.24023
33.415	6.24023
33.42	6.24023
33.425	6.32812
33.43	6.32812
33.435	6.32812
33.44	6.32812
33.445	6.32812
33.45	6.32812
33.455	6.32812
33.46	6.32812
33.465	6.32812
33.47	6.41602
33.475	6.41602
33.48	6.41602
33.485	6.41602
33.49	6.41602
33.495	6.41602
33.5	6.41602
33.505	6.41602
33.51	6.41602
33.515	6.41602
33.52	6.41602
33.525	6.50391
33.53	6.50391
33.535	6.50391
33.54	6.50391
33.545	6.50391
33.55	6.50391
33.555	6.50391
33.56	6.50391
33.565	6.50391
33.57	6.5918
33.575	6.5918
33.58	6.5918
33.585	6.5918
33.59	6.5918
33.595	6.5918
33.6	6.5918
33.605	6.5918
33.61	6.5918
33.615	6.67969
33.62	6.67969
33.625	6.67969
33.63	6.67969
33.635	6.67969
33.64	6.76758
33.645	6.76758
33.65	6.67969
33.655	6.76758
33.66	6.76758
33.665	6.76758
33.67	6.76758
33.675	6.76758
33.68	6.76758
33.685	6.76758
33.69	6.76758
33.695	6.76758
33.7	6.76758
33.705	6.76758
33.71	6.76758
33.715	6.76758
33.72	6.85547
33.725	6.85547
33.73	6.85547
33.735	6.85547
33.74	6.85547
33.745	6.85547
33.75	6.85547
33.755	6.85547
33.76	6.85547
33.765	6.85547
33.77	6.85547
33.775	6.85547
33.78	6.85547
33.785	6.85547
33.79	6.85547
33.795	6.85547
33.8	6.85547
33.805	6.85547
33.81	6.85547
33.815	6.85547
33.82	6.85547
33.825	6.85547
33.83	6.85547
33.835	6.85547
33.84	6.85547
33.845	6.85547
33.85	6.85547
33.855	6.85547
33.86	6.85547
33.865	6.85547
33.87	6.85547
33.875	6.85547
33.88	6.85547
33.885	6.85547
33.89	6.85547
33.895	6.85547
33.9	6.85547
33.905	6.85547
33.91	6.94336
33.915	6.94336
33.92	6.94336
33.925	6.85547
33.93	6.94336
33.935	6.94336
33.94	6.94336
33.945	6.94336
33.95	6.94336
33.955	6.94336
33.96	6.85547
33.965	6.94336
33.97	6.85547
33.975	6.94336
33.98	6.94336
33.985	6.85547
33.99	6.94336
33.995	6.94336
34	6.85547
34.005	6.85547
34.01	6.94336
34.015	6.85547
34.02	6.85547
34.025	6.94336
34.03	6.85547
34.035	6.85547
34.04	6.85547
34.045	6.85547
34.05	6.85547
34.055	6.85547
34.06	6.85547
34.065	6.85547
34.07	6.85547
34.075	6.85547
34.08	6.85547
34.085	6.85547
34.09	6.85547
34.095	6.85547
34.1	6.85547
34.105	6.85547
34.11	6.85547
34.115	6.85547
34.12	6.85547
34.125	6.85547
34.13	6.85547
34.135	6.85547
34.14	6.85547
34.145	6.85547
34.15	6.85547
34.155	6.85547
34.16	6.85547
34.165	6.85547
34.17	6.85547
34.175	6.85547
34.18	6.85547
34.185	6.85547
34.19	6.85547
34.195	6.85547
34.2	6.85547
34.205	6.85547
34.21	6.76758
34.215	6.85547
34.22	6.85547
34.225	6.76758
34.23	6.85547
34.235	6.76758
34.24	6.85547
34.245	6.76758
34.25	6.85547
34.255	6.76758
34.26	6.85547
34.265	6.85547
34.27	6.76758
34.275	6.76758
34.28	6.76758
34.285	6.76758
34.29	6.76758
34.295	6.76758
34.3	6.76758
34.305	6.76758
34.31	6.76758
34.315	6.76758
34.32	6.76758
34.325	6.76758
34.33	6.76758
34.335	6.76758
34.34	6.76758
34.345	6.76758
34.35	6.76758
34.355	6.76758
34.36	6.76758
34.365	6.76758
34.37	6.76758
34.375	6.76758
34.38	6.76758
34.385	6.76758
34.39	6.76758
34.395	6.76758
34.4	6.76758
34.405	6.76758
34.41	6.76758
34.415	6.76758
34.42	6.76758
34.425	6.76758
34.43	6.76758
34.435	6.76758
34.44	6.67969
34.445	6.76758
34.45	6.76758
34.455	6.76758
34.46	6.76758
34.465	6.76758
34.47	6.76758
34.475	6.76758
34.48	6.76758
34.485	6.76758
34.49	6.76758
34.495	6.76758
34.5	6.85547
34.505	6.76758
34.51	6.76758
34.515	6.76758
34.52	6.76758
34.525	6.76758
34.53	6.76758
34.535	6.76758
34.54	6.76758
34.545	6.76758
34.55	6.76758
34.555	6.85547
34.56	6.85547
34.565	6.85547
34.57	6.85547
34.575	6.85547
34.58	6.85547
34.585	6.85547
34.59	6.85547
34.595	6.85547
34.6	6.85547
34.605	6.85547
34.61	6.85547
34.615	6.85547
34.62	6.85547
34.625	6.85547
34.63	6.85547
34.635	6.85547
34.64	6.85547
34.645	6.94336
34.65	6.94336
34.655	6.94336
34.66	6.94336
34.665	6.94336
34.67	6.94336
34.675	6.94336
34.68	6.94336
34.685	6.94336
34.69	6.94336
34.695	7.03125
34.7	6.94336
34.705	6.94336
34.71	7.03125
34.715	7.03125
34.72	7.03125
34.725	7.03125
34.73	7.03125
34.735	7.03125
34.74	7.11914
34.745	7.03125
34.75	7.03125
34.755	7.11914
34.76	7.03125
34.765	7.11914
34.77	7.11914
34.775	7.11914
34.78	7.11914
34.785	7.11914
34.79	7.11914
34.795	7.11914
34.8	7.11914
34.805	7.11914
34.81	7.11914
34.815	7.11914
34.82	7.11914
34.825	7.11914
34.83	7.11914
34.835	7.11914
34.84	7.11914
34.845	7.11914
34.85	7.11914
34.855	7.11914
34.86	7.11914
34.865	7.11914
34.87	7.20703
34.875	7.11914
34.88	7.11914
34.885	7.11914
34.89	7.11914
34.895	7.11914
34.9	7.11914
34.905	7.11914
34.91	7.11914
34.915	7.11914
34.92	7.11914
34.925	7.11914
34.93	7.11914
34.935	7.11914
34.94	7.11914
34.945	7.11914
34.95	7.11914
34.955	7.11914
34.96	7.11914
34.965	7.11914
34.97	7.11914
34.975	7.11914
34.98	7.11914
34.985	7.11914
34.99	7.11914
34.995	7.11914
35	7.11914
35.005	7.11914
35.01	7.11914
35.015	7.11914
35.02	7.11914
35.025	7.11914
35.03	7.11914
35.035	7.11914
35.04	7.11914
35.045	7.11914
35.05	7.20703
35.055	7.20703
35.06	7.20703
35.065	7.20703
35.07	7.20703
35.075	7.20703
35.08	7.20703
35.085	7.20703
35.09	7.20703
35.095	7.20703
35.1	7.20703
35.105	7.20703
35.11	7.20703
35.115	7.20703
35.12	7.20703
35.125	7.20703
35.13	7.20703
35.135	7.20703
35.14	7.20703
35.145	7.20703
35.15	7.20703
35.155	7.20703
35.16	7.11914
35.165	7.11914
35.17	7.11914
35.175	7.11914
35.18	7.11914
35.185	7.11914
35.19	7.03125
35.195	7.11914
35.2	7.03125
35.205	6.94336
35.21	7.03125
35.215	6.94336
35.22	6.94336
35.225	6.94336
35.23	6.85547
35.235	6.85547
35.24	6.85547
35.245	6.76758
35.25	6.76758
35.255	6.67969
35.26	6.67969
35.265	6.67969
35.27	6.5918
35.275	6.67969
35.28	6.5918
35.285	6.5918
35.29	6.5918
35.295	6.5918
35.3	6.5918
35.305	6.50391
35.31	6.50391
35.315	6.50391
35.32	6.50391
35.325	6.41602
35.33	6.41602
35.335	6.41602
35.34	6.32812
35.345	6.32812
35.35	6.32812
35.355	6.32812
35.36	6.32812
35.365	6.32812
35.37	6.32812
35.375	6.32812
35.38	6.24023
35.385	6.24023
35.39	6.24023
35.395	6.06445
35.4	6.06445
35.405	6.06445
35.41	6.06445
35.415	6.06445
35.42	6.06445
35.425	6.06445
35.43	6.06445
35.435	5.97656
35.44	5.88867
35.445	5.97656
35.45	5.88867
35.455	5.80078
35.46	5.80078
35.465	5.71289
35.47	5.71289
35.475	5.625
35.48	5.625
35.485	5.625
35.49	5.625
35.495	5.53711
35.5	5.44922
35.505	5.36133
35.51	5.27344
35.515	5.27344
35.52	5.18555
35.525	5.09766
35.53	5.09766
35.535	5.09766
35.54	5.00977
35.545	5.00977
35.55	5.00977
35.555	4.83398
35.56	4.83398
35.565	4.83398
35.57	4.6582
35.575	4.6582
35.58	4.6582
35.585	4.48242
35.59	4.48242
35.595	4.48242
35.6	4.48242
35.605	4.39453
35.61	4.30664
35.615	4.30664
35.62	4.21875
35.625	4.13086
35.63	4.04297
35.635	4.04297
35.64	3.95508
35.645	3.95508
35.65	4.04297
35.655	3.95508
35.66	3.95508
35.665	3.86719
35.67	3.7793
35.675	3.86719
35.68	3.7793
35.685	3.7793
35.69	3.7793
35.695	3.69141
35.7	3.69141
