time (s) - Front Motor	Motor Voltage (V) - Front Motor	time (s) - Back Motor	Motor Voltage (V) - Back Motor
0	521.97	0	521.97
0.005	396.234	0.005	396.234
0.01	301.936	0.01	301.936
0.015	231.216	0.015	231.216
0.02	178.329	0.02	178.032
0.025	137.901	0.025	138.913
0.03	108.207	0.03	108.955
0.035	85.9408	0.035	86.4902
0.04	69.2447	0.04	69.6453
0.045	56.7265	0.045	57.0155
0.05	47.3417	0.05	47.5469
0.055	40.3068	0.055	40.4493
0.06	34.6476	0.06	35.5169
0.065	30.7888	0.065	31.4395
0.07	27.8986	0.07	28.3853
0.075	25.7347	0.075	26.0985
0.08	24.1156	0.08	24.3872
0.085	22.9051	0.085	23.1075
0.09	22.0011	0.09	22.1516
0.095	21.3269	0.095	21.4384
0.1	20.4381	0.1	21.2944
0.105	20.1571	0.105	20.8083
0.11	18.2849	0.11	18.7821
0.115	18.5354	0.115	18.9172
0.12	18.3401	0.12	19.4092
0.125	18.5793	0.125	19.4002
0.13	17.0971	0.13	17.7319
0.135	17.6401	0.135	18.1353
0.14	18.0511	0.14	18.4416
0.145	17.3233	0.145	16.3842
0.15	17.8088	0.15	17.1192
0.155	18.1766	0.155	17.6741
0.16	18.4563	0.16	18.0941
0.165	17.0044	0.165	16.7474
0.17	17.1832	0.17	17.779
0.175	17.7029	0.175	18.1746
0.18	17.0564	0.18	16.1841
0.185	17.603	0.185	16.9692
0.19	16.3512	0.19	15.8963
0.195	17.067	0.195	16.7462
0.2	17.6075	0.2	17.3874
0.205	16.9767	0.205	15.581
0.21	17.5349	0.21	16.5042
0.215	16.2918	0.215	15.5348
0.22	15.3487	0.22	14.7969
0.225	16.9213	0.225	15.2726
0.23	15.8158	0.23	14.5908
0.235	16.6412	0.235	15.734
0.24	15.5984	0.24	14.9297
0.245	15.431	0.245	13.69
0.25	15.0581	0.25	12.9857
0.255	13.3458	0.255	10.5375
0.26	14.7436	0.26	12.6299
0.265	14.1301	0.265	12.5374
0.27	14.2844	0.27	11.8315
0.275	13.7659	0.275	11.9143
0.28	12.3261	0.28	9.67454
0.285	13.9282	0.285	11.9232
0.29	14.4802	0.29	10.9353
0.295	13.491	0.295	11.5753
0.3	13.12	0.3	11.6624
0.305	13.8429	0.305	10.7041
0.31	12.982	0.31	11.3664
0.315	13.0939	0.315	11.0831
0.32	13.0233	0.32	11.0027
0.325	11.6779	0.325	8.88179
0.33	12.0721	0.33	9.16705
0.335	12.6002	0.335	9.12612
0.34	11.9747	0.34	10.0943
0.345	12.2631	0.345	10.0404
0.35	12.3248	0.35	10.1319
0.355	12.5053	0.355	10.0437
0.36	12.486	0.36	10.1095
0.365	11.9802	0.365	10.6274
0.37	8.73862	0.37	7.19364
0.375	9.98185	0.375	7.5246
0.38	10.5181	0.38	8.14607
0.385	7.96205	0.385	4.8858
0.39	8.08653	0.39	6.97957
0.395	7.99023	0.395	5.38563
0.4	8.45409	0.4	6.93266
0.405	9.27032	0.405	7.60136
0.41	10.2549	0.41	7.70714
0.415	7.26622	0.415	4.82874
0.42	7.83482	0.42	6.43993
0.425	6.02418	0.425	3.20035
0.43	5.42613	0.43	3.25992
0.435	7.24215	0.435	4.31815
0.44	5.67817	0.44	4.6833
0.445	7.39297	0.445	5.3474
0.45	7.65695	0.45	6.84375
0.455	7.18497	0.455	5.28132
0.46	7.84666	0.46	6.37168
0.465	7.29104	0.465	4.88655
0.47	7.503	0.47	6.42177
0.475	6.36641	0.475	5.51385
0.48	7.77827	0.48	5.84622
0.485	5.10956	0.485	3.13731
0.49	4.49087	0.49	2.97124
0.495	5.66556	0.495	4.48536
0.5	5.10753	0.5	3.70477
0.505	5.46077	0.505	5.62483
0.51	5.29681	0.51	4.13842
0.515	6.4277	0.515	5.0469
0.52	5.35676	0.52	4.29192
0.525	6.19209	0.525	5.36417
0.53	3.71397	0.53	2.58661
0.535	3.23793	0.535	2.36877
0.54	5.14482	0.54	3.21828
0.545	4.27384	0.545	2.80075
0.55	4.87203	0.55	4.51287
0.555	4.0246	0.555	3.73711
0.56	2.32204	0.56	0.837276
0.565	3.32405	0.565	2.96172
0.57	1.73946	0.57	0.204197
0.575	1.16448	0.575	0.769899
0.58	3.37873	0.58	1.82492
0.585	-0.592801	0.585	-1.76956
0.59	1.36839	0.59	0.474353
0.595	-3.59664	0.595	-4.75575
0.6	-4.06346	0.6	-5.4157
0.605	-6.36239	0.605	-7.37673
0.61	-4.18692	0.61	-6.19886
0.615	-1.92777	0.615	-2.66753
0.62	-1.53008	0.62	-2.07952
0.625	0.405894	0.625	-0.000858906
0.63	0.179276	0.63	-0.120533
0.635	-1.4453	0.635	-2.14203
0.64	0.770304	0.64	-0.515275
0.645	2.03682	0.645	1.07327
0.65	-0.744366	0.65	-0.692569
0.655	-0.199915	0.655	-1.40137
0.66	1.60956	0.66	-0.059252
0.665	-2.81179	0.665	-3.29356
0.67	-0.419832	0.67	-1.54903
0.675	-2.73902	0.675	-2.81622
0.68	-2.47376	0.68	-2.52577
0.685	-0.0120769	0.685	-1.29623
0.69	1.19725	0.69	0.235462
0.695	0.425168	0.695	-0.294917
0.7	1.48328	0.7	0.944403
0.705	-1.06766	0.705	-1.47071
0.71	0.307123	0.71	0.00587265
0.715	1.3244	0.715	1.09942
0.72	2.07352	0.72	1.90568
0.725	0.956115	0.725	0.831055
0.73	2.14201	0.73	1.27507
0.735	0.970261	0.735	0.310565
0.74	0.0629972	0.74	-0.441338
0.745	1.64494	0.745	0.00608966
0.75	2.19412	0.75	0.950854
0.755	2.59198	0.755	1.64533
0.76	1.59788	0.76	0.0997246
0.765	0.0549094	0.765	-0.319326
0.77	0.916322	0.77	0.62122
0.775	1.54824	0.775	1.31242
0.78	-0.935822	0.78	-1.90116
0.785	0.106836	0.785	-0.641979
0.79	-0.165321	0.79	-2.00278
0.795	0.643911	0.795	-0.763564
0.8	1.23654	0.8	0.151481
0.805	-1.27714	0.805	-2.89436
0.81	0.130099	0.81	-1.89648
0.815	0.789275	0.815	-0.780673
0.82	1.26925	0.82	0.0417023
0.825	1.61481	0.825	0.643982
0.83	2.24648	0.83	0.694225
0.835	2.3239	0.835	1.09923
0.84	2.36749	0.84	1.38843
0.845	2.38568	0.845	1.59075
0.85	1.10635	0.85	-0.324455
0.855	-0.264078	0.855	-1.40813
0.86	2.00979	0.86	1.08073
0.865	-0.894138	0.865	-2.43594
0.87	-0.166822	0.87	-1.40451
0.875	0.363991	0.875	-0.645698
0.88	-1.57096	0.88	-4.43458
0.885	-0.740274	0.885	-2.98414
0.89	-0.132029	0.89	-1.91116
0.895	-2.63448	0.895	-4.83903
0.9	-1.2193	0.9	-3.75316
0.905	1.11076	0.905	-0.906433
0.91	-0.0859126	0.91	-2.48957
0.915	0.657657	0.915	-2.04609
0.92	0.818547	0.92	-1.34662
0.925	-0.354178	0.925	-2.88938
0.93	2.07267	0.93	-0.750299
0.935	1.84507	0.935	-0.430075
0.94	0.380916	0.94	-2.25733
0.945	2.58914	0.945	-0.331676
0.95	2.1975	0.95	-0.171581
0.955	0.610274	0.955	-2.11899
0.96	2.33918	0.96	0.103437
0.965	1.96987	0.965	0.10419
0.97	2.06472	0.97	-0.297385
0.975	2.12581	0.975	-0.61886
0.98	1.77461	0.98	-0.493332
0.985	1.88298	0.985	-0.801383
0.99	1.95415	0.99	-1.05277
0.995	3.27585	0.995	0.79066
1	1.32257	1	-1.54529
1.005	3.16373	1.005	-0.0013743
1.01	2.4966	1.01	-0.127791
1.015	2.75487	1.015	-1.01184
1.02	2.16956	1.02	-0.926517
1.025	3.76761	1.025	0.400543
1.03	3.30504	1.03	-0.275521
1.035	2.94786	1.035	-0.803054
1.04	3.94816	1.04	0.833136
1.045	3.4191	1.045	0.00701514
1.05	3.01202	1.05	-0.633099
1.055	3.97486	1.055	0.918617
1.06	3.41766	1.06	0.0291019
1.065	2.98944	1.065	-0.658596
1.07	4.32333	1.07	0.470447
1.075	3.27557	1.075	0.0327011
1.08	4.52666	1.08	0.967323
1.085	4.19066	1.085	-0.39015
1.09	4.82487	1.09	1.00533
1.095	4.02113	1.095	-0.00142985
1.1	5.07332	1.1	0.888255
1.105	5.47962	1.105	1.93633
1.11	4.50492	1.11	0.668991
1.115	4.15043	1.115	-0.689119
1.12	5.15765	1.12	0.318884
1.125	4.25174	1.125	-0.596683
1.13	5.22725	1.13	0.361342
1.135	4.29754	1.135	-0.591728
1.14	5.25517	1.14	0.33815
1.145	5.59048	1.145	1.41629
1.15	6.22786	1.15	1.83683
1.155	5.04453	1.155	0.480617
1.16	5.81193	1.16	1.10812
1.165	6.39149	1.165	1.57252
1.17	6.44323	1.17	2.30153
1.175	6.21494	1.175	-0.217624
1.18	6.30652	1.18	0.929733
1.185	7.14801	1.185	1.01519
1.19	7.01431	1.19	1.84184
1.195	7.29989	1.195	2.07372
1.2	7.13112	1.2	2.62832
1.205	7.39041	1.205	2.65615
1.21	7.58886	1.21	2.67078
1.215	7.35475	1.215	3.06244
1.22	7.56502	1.22	2.96807
1.225	5.67437	1.225	1.6126
1.23	6.29312	1.23	1.85875
1.235	6.3742	1.235	2.42404
1.24	7.44634	1.24	1.83439
1.245	7.63114	1.245	2.00915
1.25	7.77372	1.25	2.13396
1.255	7.49768	1.255	2.60823
1.26	7.67648	1.26	2.57581
1.265	7.81457	1.265	2.54522
1.27	7.53515	1.27	2.90295
1.275	7.71143	1.275	2.78311
1.28	7.46067	1.28	3.07391
1.285	7.89697	1.285	2.66534
1.29	9.65217	1.29	4.25944
1.295	8.93471	1.295	4.18482
1.3	9.16943	1.3	3.35379
1.305	8.58065	1.305	3.49307
1.31	8.76346	1.31	2.97089
1.315	8.66316	1.315	2.8144
1.32	9.87037	1.32	4.74312
1.325	9.12382	1.325	4.53762
1.33	8.94979	1.33	3.99539
1.335	8.43634	1.335	3.96944
1.34	10.3411	1.34	4.98873
1.345	9.49438	1.345	4.72445
1.35	9.24528	1.35	4.13815
1.355	10.9664	1.355	5.11908
1.36	9.98208	1.36	4.82603
1.365	9.24279	1.365	4.60514
1.37	10.9782	1.37	5.47826
1.375	9.61761	1.375	5.49133
1.38	8.97803	1.38	5.11817
1.385	10.7882	1.385	5.87712
1.39	9.87072	1.39	5.41763
1.395	10.0731	1.395	7.51122
1.4	9.96224	1.4	6.04025
1.405	9.25486	1.405	5.55923
1.41	9.61486	1.41	7.6367
1.415	9.62223	1.415	6.15365
1.42	8.61659	1.42	6.05054
1.425	9.76027	1.425	7.40411
1.43	9.10666	1.43	6.6269
1.435	9.89398	1.435	8.09532
1.44	9.06613	1.44	7.31128
1.445	9.86324	1.445	8.63413
1.45	9.04274	1.45	7.74093
1.455	9.8454	1.455	8.98193
1.46	9.41602	1.46	7.64042
1.465	8.07783	1.465	7.64861
1.47	9.74098	1.47	8.31692
1.475	8.3213	1.475	8.1816
1.48	7.63248	1.48	7.70238
1.485	9.40082	1.485	8.38701
1.49	8.447	1.49	7.877
1.495	9.24271	1.495	9.31246
1.5	8.32318	1.5	8.60186
1.505	7.62764	1.505	8.07308
1.51	8.61708	1.51	9.49447
1.515	8.46834	1.515	8.14786
1.52	9.0061	1.52	9.8177
1.525	8.37308	1.525	8.80299
1.53	7.26412	1.53	8.67452
1.535	8.47381	1.535	9.86589
1.54	8.34984	1.54	8.48727
1.545	7.24082	1.545	8.46774
1.55	8.68902	1.55	9.50231
1.555	7.72866	1.555	9.0214
1.56	8.80844	1.56	10.1899
1.565	7.57465	1.565	9.80657
1.57	8.7809	1.57	10.7167
1.575	7.54104	1.575	10.2406
1.58	6.98725	1.58	9.50598
1.585	7.69618	1.585	11.16
1.59	7.71904	1.59	9.60613
1.595	8.38562	1.595	11.1206
1.6	7.07545	1.6	10.7634
1.605	8.51335	1.605	11.4043
1.61	7.69377	1.61	10.4799
1.615	8.59037	1.615	11.6047
1.62	7.98524	1.62	10.4227
1.625	7.2843	1.625	9.78201
1.63	8.2699	1.63	11.1196
1.635	7.73154	1.635	10.0973
1.64	7.0807	1.64	9.57635
1.645	8.10389	1.645	11.0038
1.65	6.96826	1.65	10.6744
1.655	7.86134	1.655	12.012
1.66	7.78103	1.66	10.4624
1.665	8.6089	1.665	11.7416
1.67	7.95229	1.67	10.6756
1.675	8.72982	1.675	11.9357
1.68	8.42244	1.68	10.4683
1.685	9.22845	1.685	11.6609
1.69	8.41504	1.69	10.6704
1.695	8.1835	1.695	9.54788
1.7	7.38102	1.7	9.33371
1.705	8.67754	1.705	10.6044
1.71	8.37757	1.71	9.52691
1.715	7.52379	1.715	9.34652
1.72	9.16879	1.72	10.2556
1.725	8.74835	1.725	9.28882
1.73	7.80423	1.73	9.19148
1.735	7.71611	1.735	8.49747
1.74	9.31211	1.74	9.64463
1.745	8.61641	1.745	9.09494
1.75	7.9458	1.75	8.8305
1.755	8.20838	1.755	7.86564
1.76	7.39468	1.76	8.15164
1.765	9.45675	1.765	9.0236
1.77	9.35422	1.77	8.0239
1.775	8.26672	1.775	8.28378
1.78	8.07111	1.78	7.85773
1.785	7.92114	1.785	7.54049
1.79	9.85775	1.79	8.58332
1.795	8.64872	1.795	8.72421
1.8	8.74894	1.8	7.82198
1.805	8.20046	1.805	7.76804
1.81	8.41422	1.81	7.10154
1.815	7.56396	1.815	7.61134
1.82	9.2117	1.82	9.03813
1.825	9.18034	1.825	8.07272
1.83	8.14625	1.83	8.35835
1.835	9.00318	1.835	6.93921
1.84	8.39898	1.84	7.12086
1.845	8.57098	1.845	6.63108
1.85	9.9803	1.85	8.31334
1.855	9.14466	1.855	8.16503
1.86	8.75615	1.86	7.81474
1.865	8.84853	1.865	7.16744
1.87	8.29422	1.87	7.3047
1.875	10.169	1.875	8.44705
1.88	9.53924	1.88	8.03715
1.885	8.82518	1.885	7.97063
1.89	8.91482	1.89	7.29475
1.895	8.59701	1.895	7.17207
1.9	8.11696	1.9	7.32097
1.905	10.0475	1.905	8.47205
1.91	9.84645	1.91	7.68177
1.915	9.31065	1.915	7.47331
1.92	8.66712	1.92	7.55788
1.925	8.1842	1.925	7.62081
1.93	8.68575	1.93	6.80351
1.935	8.19697	1.935	7.05472
1.94	7.44316	1.94	7.62958
1.945	7.88488	1.945	7.05289
1.95	7.59263	1.95	7.24315
1.955	9.66405	1.955	8.42527
1.96	9.18174	1.96	8.04523
1.965	8.57834	1.965	8.00113
1.97	8.75103	1.97	7.3421
1.975	7.87008	1.975	7.85757
1.98	8.21647	1.98	7.23634
1.985	7.85274	1.985	7.39322
1.99	7.81823	1.99	7.27187
1.995	7.5507	1.995	7.42178
2	7.97528	2	6.90826
2.005	9.57413	2.005	8.57277
2.01	8.4938	2.01	8.79815
2.015	8.69067	2.015	7.95938
2.02	8.45337	2.02	7.71458
2.025	8.65924	2.025	7.14644
2.03	8.19015	2.03	7.34314
2.035	8.07664	2.035	7.25167
2.04	7.98842	2.04	7.18547
2.045	9.58456	2.045	8.80363
2.05	8.88916	2.05	8.60732
2.055	8.36741	2.055	8.45963
2.06	8.83992	2.06	7.4844
2.065	7.94247	2.065	8.00416
2.07	7.88959	2.07	7.77312
2.075	8.23381	2.075	7.21532
2.08	7.48155	2.08	7.80674
2.085	7.92452	2.085	7.24251
2.09	9.5372	2.09	8.86901
2.095	8.85424	2.095	8.67897
2.1	8.58038	2.1	8.29747
2.105	8.37193	2.105	8.01378
2.11	7.97402	2.11	8.04199
2.115	7.91395	2.115	7.82417
2.12	7.62732	2.12	7.90178
2.125	7.65071	2.125	7.72101
2.13	7.6652	2.13	7.58787
2.135	7.4345	2.135	7.72898
2.14	7.49984	2.14	7.59584
2.145	7.5458	2.145	7.49842
2.15	7.33869	2.15	7.66632
2.155	6.79625	2.155	8.17875
2.16	7.3966	2.16	7.55528
2.165	7.22342	2.165	7.71051
2.17	8.9973	2.17	9.25335
2.175	8.67379	2.175	8.76204
2.18	8.18961	2.18	8.63454
2.185	8.06487	2.185	8.29995
2.19	7.96829	2.19	8.05146
2.195	7.89284	2.195	7.86754
2.2	7.5947	2.2	7.97057
2.205	7.84802	2.205	7.57035
2.21	7.55506	2.21	7.75257
2.215	7.57373	2.215	7.65027
2.22	7.58472	2.22	7.57599
2.225	7.58995	2.225	7.52272
2.23	9.6432	2.23	8.76366
2.235	9.1474	2.235	8.42779
2.24	8.14707	2.24	8.80383
2.245	8.64259	2.245	7.83956
2.25	8.14943	2.25	7.98063
2.255	8.01798	2.255	7.84747
2.26	7.91641	2.26	7.75006
2.265	7.83724	2.265	7.67945
2.27	7.1494	2.27	8.25443
2.275	7.25381	2.275	8.06485
2.28	9.38147	2.28	9.20356
2.285	8.70296	2.285	9.02957
2.29	8.81947	2.29	8.27319
2.295	7.89655	2.295	8.71573
2.3	8.21161	2.3	8.03988
2.305	8.06307	2.305	7.91732
2.31	7.71018	2.31	8.06641
2.315	7.68395	2.315	7.93928
2.32	7.66132	2.32	7.8464
2.325	7.64139	2.325	7.77921
2.33	7.38495	2.33	7.96981
2.335	7.19254	2.335	8.11235
2.34	7.28667	2.34	7.98032
2.345	7.50273	2.345	7.73534
2.35	7.52136	2.35	7.69453
2.355	7.29384	2.355	7.90492
2.36	7.12312	2.36	8.0623
2.365	7.62047	2.365	7.55444
2.37	7.37013	2.37	7.79641
2.375	7.1823	2.375	7.97747
2.38	7.27987	2.38	7.87433
2.385	7.11156	2.385	8.03796
2.39	6.98525	2.39	8.16027
2.395	7.12897	2.395	8.01306
2.4	7.62075	2.4	7.51816
2.405	6.97929	2.405	8.15679
2.41	6.87998	2.41	8.25349
2.415	7.4309	2.415	7.70011
2.42	6.83379	2.42	8.29488
2.425	7.78017	2.425	7.34625
2.43	8.76319	2.43	9.69184
2.435	8.85686	2.435	8.7924
2.44	8.30377	2.44	8.74069
2.445	8.51438	2.445	8.07603
2.45	8.04901	2.45	8.20041
2.455	7.69992	2.455	8.2933
2.46	8.06354	2.46	7.73708
2.465	7.71292	2.465	7.94279
2.47	7.68843	2.47	7.85814
2.475	7.4286	2.475	8.03565
2.48	7.85916	2.48	7.54291
2.485	7.55875	2.485	7.79622
2.49	7.33339	2.49	7.9858
2.495	7.40285	2.495	7.88905
2.5	7.60043	2.5	7.67054
2.505	7.3667	2.505	7.88813
2.51	7.19135	2.51	8.05091
2.515	7.68526	2.515	7.54711
2.52	7.43238	2.52	7.79213
2.525	7.86814	2.525	7.35002
2.53	7.57164	2.53	7.64129
2.535	7.34921	2.535	7.85935
2.54	7.80782	2.54	7.397
2.545	7.52846	2.545	7.67311
2.55	7.31888	2.55	7.87978
2.555	7.78714	2.555	7.4089
2.56	7.515	2.56	7.6786
2.565	7.93633	2.565	7.25499
2.57	7.62901	2.57	7.56015
2.575	7.39847	2.575	7.78861
2.58	9.5164	2.58	8.99946
2.585	9.2176	2.585	8.49265
2.59	8.6116	2.59	8.49401
2.595	8.78256	2.595	7.86916
2.6	8.28748	2.6	8.0234
2.605	8.30309	2.605	7.75175
2.61	7.9329	2.61	7.92948
2.615	8.28072	2.615	7.43691
2.62	7.91828	2.62	7.69037
2.625	7.64643	2.625	7.88006
2.63	8.06799	2.63	7.39646
2.635	7.76087	2.635	7.65664
2.64	7.5305	2.64	7.85139
2.645	7.3577	2.645	7.99705
2.65	7.85356	2.65	7.48042
2.655	7.9891	2.655	7.32889
2.66	7.70887	2.66	7.59671
2.665	7.49867	2.665	7.79718
2.67	7.96648	2.67	7.32165
2.675	7.69404	2.675	7.58789
2.68	7.87663	2.68	7.40023
2.685	8.25717	2.685	7.01547
2.69	7.91928	2.69	7.34978
2.695	7.66584	2.695	7.60011
2.7	7.47574	2.7	7.78747
2.705	7.33314	2.705	7.92759
2.71	8.2386	2.71	7.01986
2.715	7.91253	2.715	7.3438
2.72	9.33336	2.72	9.25176
2.725	8.74808	2.725	9.03145
2.73	8.9346	2.73	8.24037
2.735	8.45122	2.735	8.26995
2.74	8.08868	2.74	8.29175
2.745	8.20373	2.745	7.92078
2.75	7.90814	2.75	8.02404
2.755	8.31194	2.755	7.47563
2.76	7.99151	2.76	7.68721
2.765	8.13813	2.765	7.45857
2.77	8.49172	2.77	7.0431
2.775	8.13364	2.775	7.35438
2.78	7.86507	2.78	7.58747
2.785	8.0506	2.785	7.37495
2.79	8.04642	2.79	7.35852
2.795	7.80187	2.795	7.58722
2.8	8.00541	2.8	7.37142
2.805	8.01474	2.805	7.35252
2.81	8.16728	2.81	7.19242
2.815	9.56521	2.815	9.11922
2.82	9.34974	2.82	8.52612
2.825	8.8063	2.825	8.4628
2.83	9.02422	2.83	7.78947
2.835	8.5644	2.835	7.90738
2.84	8.21957	2.84	7.99544
2.845	8.34791	2.845	7.67418
2.85	8.06233	2.85	7.81474
2.855	8.47364	2.855	7.29431
2.86	8.15888	2.86	7.5269
2.865	7.92284	2.865	7.70097
2.87	7.74582	2.87	7.83116
2.875	7.61309	2.875	7.92844
2.88	7.51356	2.88	8.00103
2.885	8.06442	2.885	7.42963
2.89	7.85432	2.89	7.62399
2.895	7.69677	2.895	7.76939
2.9	7.57863	2.9	7.87807
2.905	7.49005	2.905	7.95922
2.91	7.81059	2.91	7.63277
2.915	7.66915	2.915	7.76943
2.92	7.5631	2.92	7.87156
2.925	8.10907	2.925	7.32231
2.93	7.89529	2.93	7.53328
2.935	7.73499	2.935	7.69114
2.94	7.61479	2.94	7.80917
2.945	7.52467	2.945	7.89732
2.95	7.4571	2.95	7.96307
2.955	8.03193	2.955	7.38653
2.96	7.83981	2.96	7.57703
2.965	7.69574	2.965	7.71954
2.97	7.58772	2.97	7.82606
2.975	9.17213	2.975	9.57097
2.98	8.70959	2.98	9.22841
2.985	8.74968	2.985	8.5842
2.99	9.0234	2.99	7.85708
2.995	8.60547	2.995	7.93466
3	8.29207	3	7.99249
3.005	8.44402	3.005	7.64857
3.01	8.17616	3.01	7.77215
3.015	7.58836	3.015	8.25143
3.02	7.91637	3.02	7.84173
3.025	8.40605	3.025	7.29048
3.03	8.15008	3.03	7.49997
3.035	7.95815	3.035	7.65674
3.04	7.81425	3.04	7.77397
3.045	7.70637	3.045	7.86153
3.05	7.62551	3.05	7.92686
3.055	7.17797	3.055	8.36245
3.06	8.23665	3.06	7.2945
3.065	7.4001	3.065	8.1238
3.07	8.02148	3.07	7.49668
3.075	7.86429	3.075	7.64925
3.08	7.74645	3.08	7.76333
3.085	7.65812	3.085	7.84854
3.09	7.97887	3.09	7.52515
3.095	7.83761	3.095	7.66412
3.1	7.73172	3.1	7.768
3.105	7.65235	3.105	7.84555
3.11	8.21835	3.11	7.27789
3.115	8.01963	3.115	7.47506
3.12	7.87064	3.12	7.62258
3.125	7.75895	3.125	7.73287
3.13	7.67523	3.13	7.81524
3.135	7.61249	3.135	7.87666
3.14	7.56548	3.14	7.92237
3.145	7.53028	3.145	7.95631
3.15	7.50393	3.15	7.9814
3.155	7.87116	3.155	7.61293
3.16	7.37782	3.16	8.10503
3.165	7.38974	3.165	8.09189
3.17	7.78567	3.17	7.69473
3.175	7.7008	3.175	7.77838
3.18	7.6372	3.18	7.84076
3.185	7.58955	3.185	7.8872
3.19	7.55386	3.19	7.92167
3.195	8.15263	3.195	7.32169
3.2	7.97848	3.2	7.49462
3.205	8.23487	3.205	7.23703
3.21	8.04534	3.21	7.42534
3.215	7.90325	3.215	7.56622
3.22	7.79673	3.22	7.67153
3.225	7.71689	3.225	7.75015
3.23	7.65707	3.23	7.80877
3.235	7.61225	3.235	7.85238
3.24	7.96563	3.24	7.49778
3.245	7.84885	3.245	7.61335
3.25	9.42672	3.25	9.36507
3.255	8.95929	3.255	9.02763
3.26	8.6088	3.26	8.77422
3.265	8.34599	3.265	8.58382
3.27	8.53591	3.27	8.05375
3.275	8.29655	3.275	8.03772
3.28	8.74258	3.28	7.39988
3.285	7.82842	3.285	8.16993
3.29	7.76615	3.29	8.12385
3.295	8.34499	3.295	7.46348
3.3	8.54287	3.3	7.20419
3.305	8.30948	3.305	7.39125
3.31	8.13451	3.31	7.53122
3.315	8.00336	3.315	7.63585
3.32	7.90506	3.32	7.714
3.325	7.83141	3.325	7.77227
3.33	7.77625	3.33	7.81563
3.335	7.73494	3.335	7.84782
3.34	7.70404	3.34	7.87163
3.345	7.68093	3.345	7.88915
3.35	8.05061	3.35	7.51501
3.355	7.94608	3.355	7.61594
3.36	7.86776	3.36	7.69129
3.365	7.80909	3.365	7.74748
3.37	8.1521	3.37	7.40233
3.375	8.02756	3.375	7.525
3.38	7.93423	3.38	7.61667
3.385	7.86431	3.385	7.68509
3.39	7.81193	3.39	7.73606
3.395	7.77273	3.395	7.77396
3.4	8.13034	3.4	7.4151
3.405	8.01675	3.405	7.52749
3.41	7.93163	3.41	7.61144
3.415	7.86786	3.415	7.67407
3.42	7.82011	3.42	7.72071
3.425	7.78437	3.425	7.75535
3.43	7.75763	3.43	7.781
3.435	7.73765	3.435	7.79989
3.44	7.72273	3.44	7.81373
3.445	7.71162	3.445	7.82378
3.45	8.0903	3.45	7.44403
3.455	7.99251	3.455	7.54075
3.46	7.91925	3.46	7.61295
3.465	8.25132	3.465	7.27982
3.47	8.11857	3.47	7.4115
3.475	8.01909	3.475	7.50993
3.48	7.94454	3.48	7.58342
3.485	7.88871	3.485	7.63819
3.49	8.23385	3.49	7.292
3.495	8.11091	3.495	7.41388
3.5	8.01878	3.5	7.50495
3.505	7.94975	3.505	7.57292
3.51	7.89805	3.51	7.62357
3.515	7.85934	3.515	7.66121
3.52	7.83039	3.52	7.68911
3.525	7.80874	3.525	7.7097
3.53	8.17952	3.53	7.33786
3.535	8.07582	3.535	7.44051
3.54	8.38505	3.54	7.13022
3.545	8.23519	3.545	7.27903
3.55	8.12286	3.55	7.3903
3.555	8.03868	3.555	7.47342
3.56	7.97562	3.56	7.53542
3.565	7.9284	3.565	7.58159
3.57	8.28	3.57	7.22893
3.575	8.16191	3.575	7.34597
3.58	8.07341	3.58	7.43341
3.585	8.0071	3.585	7.49866
3.59	7.95745	3.59	7.54726
3.595	7.92027	3.595	7.58337
3.6	7.89247	3.6	7.61013
3.605	7.87168	3.605	7.62985
3.61	7.85617	3.61	7.64431
3.615	7.60607	3.615	7.89336
3.62	8.28545	3.62	7.21292
3.625	8.17178	3.625	7.32553
3.63	7.46113	3.63	8.03513
3.635	7.55148	3.635	7.94372
3.64	7.61931	3.64	7.87483
3.645	8.0572	3.645	7.43588
3.65	8.00382	3.65	7.4882
3.655	7.96386	3.655	7.52711
3.66	7.93396	3.66	7.55595
3.665	7.9116	3.665	7.57725
3.67	7.8949	3.67	7.59289
3.675	7.88245	3.675	7.60429
3.68	8.26013	3.68	7.22555
3.685	8.16159	3.685	7.32303
3.69	8.08776	3.69	7.39581
3.695	8.03246	3.695	7.45006
3.7	7.99105	3.7	7.49041
3.705	7.96006	3.705	7.52034
3.71	7.93689	3.71	7.54245
3.715	7.91959	3.715	7.5587
3.72	7.90668	3.72	7.57055
3.725	7.89706	3.725	7.57911
3.73	8.27687	3.73	7.19824
3.735	8.17993	3.735	7.29413
3.74	7.48182	3.74	7.99119
3.745	8.20705	3.745	7.26489
3.75	7.88925	3.75	7.58164
3.755	7.89237	3.755	7.57747
3.76	7.89477	3.76	7.574
3.765	7.89665	3.765	7.57107
3.77	7.89813	3.77	7.56854
3.775	7.8993	3.775	7.5663
3.78	7.90025	3.78	7.5643
3.785	7.90104	3.785	7.56246
3.79	7.90169	3.79	7.56074
3.795	7.90226	3.795	7.55912
3.8	7.90275	3.8	7.55758
3.805	7.90318	3.805	7.55608
3.81	7.90358	3.81	7.55463
3.815	8.29089	3.815	7.16626
3.82	8.19958	3.82	7.25651
3.825	8.13117	3.825	7.32387
3.83	7.45445	3.83	7.99954
3.835	8.19573	3.835	7.2572
3.84	8.12848	3.84	7.32338
3.845	7.45264	3.845	7.99817
3.85	7.5691	3.85	7.88066
3.855	7.65651	3.855	7.79219
3.86	7.72214	3.86	7.7255
3.865	7.77143	3.865	7.67516
3.87	8.19541	3.87	7.25012
3.875	9.79699	3.875	8.97827
3.88	9.34738	3.88	8.62318
3.885	9.01025	3.885	8.35655
3.89	8.7575	3.89	8.15626
3.895	8.56802	3.895	8.00573
3.9	8.42599	3.9	7.89252
3.905	8.31957	3.905	7.8073
3.91	8.23983	3.91	7.74307
3.915	8.18012	3.915	7.69458
3.92	8.13542	3.92	7.65791
3.925	8.10198	3.925	7.63008
3.93	8.07699	3.93	7.60891
3.935	7.43286	3.935	8.21819
3.94	7.57312	3.94	8.05157
3.945	7.6784	3.945	7.92629
3.95	7.75744	3.95	7.83201
3.955	7.81681	3.955	7.761
3.96	7.86143	3.96	7.70742
3.965	7.89498	3.965	7.66693
3.97	7.92022	3.97	7.63625
3.975	8.32619	3.975	7.22598
3.98	8.24889	3.98	7.29983
3.985	8.191	3.985	7.3549
3.99	8.14767	3.99	7.3959
3.995	8.11526	3.995	7.42633
4	8.09104	4	7.44884
4.005	8.07295	4.005	7.46541
4.01	8.05948	4.01	7.47753
4.015	8.04946	4.015	7.48631
4.02	8.04203	4.02	7.49258
4.025	7.41107	4.025	8.12245
4.03	8.18668	4.03	7.34578
4.035	8.14521	4.035	7.38625
4.04	7.48871	4.04	8.04176
4.045	7.61969	4.045	7.90982
4.05	7.71802	4.05	7.81054
4.055	7.79184	4.055	7.73578
4.06	7.8473	4.06	7.67939
4.065	7.88898	4.065	7.63679
4.07	7.92032	4.07	7.60453
4.075	7.94391	4.075	7.58003
4.08	7.9617	4.08	7.56133
4.085	7.97512	4.085	7.547
4.09	7.98527	4.09	7.53594
4.095	7.99297	4.095	7.52734
4.1	7.99883	4.1	7.52057
4.105	8.00331	4.105	7.51519
4.11	7.38127	4.11	8.13632
4.115	8.16358	4.115	7.3531
4.12	8.12713	4.12	7.38865
4.125	7.4744	4.125	8.04048
4.13	7.6082	4.13	7.90577
4.135	7.70864	4.135	7.80443
4.14	7.78405	4.14	7.72811
4.145	7.8407	4.145	7.67056
4.15	7.88327	4.15	7.62709
4.155	7.91528	4.155	7.59418
4.16	7.93937	4.16	7.56918
4.165	7.95753	4.165	7.55012
4.17	7.97123	4.17	7.53552
4.175	7.98159	4.175	7.52426
4.18	7.98944	4.18	7.5155
4.185	7.99541	4.185	7.50862
4.19	7.99998	4.19	7.50315
4.195	8.00349	4.195	7.49874
4.2	7.38073	4.2	8.1206
4.205	7.53701	4.205	7.96341
4.21	7.65431	4.21	7.84521
4.215	7.74236	4.215	7.75625
4.22	8.19543	4.22	7.30228
4.225	8.15345	4.225	7.34335
4.23	8.12206	4.23	7.37385
4.235	8.09859	4.235	7.39641
4.24	8.08107	4.24	7.41302
4.245	8.06802	4.245	7.42517
4.25	8.05831	4.25	7.43398
4.255	8.05112	4.255	7.44027
4.26	8.0458	4.26	7.44468
4.265	7.65496	4.265	7.83463
4.27	7.50523	4.27	7.98344
4.275	8.25991	4.275	7.22786
4.28	7.81579	4.28	7.67108
4.285	7.62611	4.285	7.85986
4.29	7.72534	4.29	7.75972
4.295	7.79984	4.295	7.68432
4.3	7.85581	4.3	7.62745
4.305	7.89786	4.305	7.58449
4.31	7.92948	4.31	7.55197
4.315	7.95328	4.315	7.52726
4.32	7.97122	4.32	7.50843
4.325	7.98475	4.325	7.49399
4.33	7.99498	4.33	7.48286
4.335	8.00274	4.335	7.4742
4.34	8.00864	4.34	7.46739
4.345	8.01314	4.345	7.46198
4.35	8.01661	4.35	7.45762
4.355	7.39381	4.355	8.07951
4.36	7.55006	4.36	7.92236
4.365	7.66733	4.365	7.80418
4.37	7.75537	4.37	7.71524
4.375	7.82148	4.375	7.64823
4.38	7.87114	4.38	7.59766
4.385	7.90847	4.385	7.55943
4.39	7.93655	4.39	7.53045
4.395	7.95769	4.395	7.5084
4.4	7.97363	4.4	7.49156
4.405	7.98566	4.405	7.47863
4.41	7.99477	4.41	7.46861
4.415	7.3762	4.415	8.08628
4.42	8.16111	4.42	7.30047
4.425	8.1266	4.425	7.33407
4.43	7.47532	4.43	7.98445
4.435	7.61021	4.435	7.84866
4.44	7.71146	4.44	7.7465
4.445	7.78748	4.445	7.66958
4.45	7.84457	4.45	7.61158
4.455	7.88747	4.455	7.56778
4.46	7.91973	4.46	7.53462
4.465	7.944	4.465	7.50944
4.47	7.96229	4.47	7.49025
4.475	7.97609	4.475	7.47555
4.48	7.98651	4.48	7.46422
4.485	7.99441	4.485	7.45542
4.49	8.00042	4.49	7.44851
4.495	8.00501	4.495	7.44302
4.5	7.38305	4.5	8.06408
4.505	7.53993	4.505	7.90629
4.51	7.65767	4.51	7.78765
4.515	7.74605	4.515	7.69836
4.52	8.19937	4.52	7.24414
4.525	8.15757	4.525	7.28504
4.53	8.1263	4.53	7.3154
4.535	8.10293	4.535	7.33787
4.54	8.08548	4.54	7.35442
4.545	8.07247	4.545	7.36652
4.55	8.0628	4.55	7.37529
4.555	8.05562	4.555	7.38157
4.56	8.05032	4.56	7.38597
4.565	8.04642	4.565	7.38896
4.57	7.4181	4.57	8.01638
4.575	7.5702	4.575	7.86337
4.58	7.68437	4.58	7.7483
4.585	7.77006	4.585	7.6617
4.59	7.83442	4.59	7.59645
4.595	7.88276	4.595	7.5472
4.6	7.9191	4.6	7.50996
4.605	7.94643	4.605	7.48172
4.61	7.96701	4.61	7.46024
4.615	7.98252	4.615	7.44383
4.62	7.99423	4.62	7.43121
4.625	8.00309	4.625	7.42145
4.63	8.00982	4.63	7.41382
4.635	8.01494	4.635	7.40779
4.64	7.39338	4.64	8.02845
4.645	7.55057	4.645	7.87036
4.65	7.66853	4.65	7.75149
4.655	7.75708	4.655	7.66204
4.66	7.82357	4.66	7.59465
4.665	7.87352	4.665	7.5438
4.67	7.91105	4.67	7.50536
4.675	7.93929	4.675	7.47622
4.68	8.34748	4.68	7.06712
4.685	8.27184	4.685	7.14186
4.69	8.21519	4.69	7.1976
4.695	8.17278	4.695	7.23911
4.7	8.14105	4.7	7.26994
4.705	7.49185	4.705	7.91824
4.71	7.6283	4.71	7.78088
4.715	7.73071	4.715	7.67757
4.72	7.8076	4.72	7.59977
4.725	7.86534	4.725	7.54113
4.73	7.90873	4.73	7.49684
4.735	7.94134	4.735	7.46332
4.74	7.96588	4.74	7.43788
4.745	7.98436	4.745	7.4185
4.75	7.9983	4.75	7.40366
4.755	8.00883	4.755	7.39223
4.76	8.0168	4.76	7.38335
4.765	7.39738	4.765	8.00187
4.77	7.55616	4.77	7.84218
4.775	7.67532	4.775	7.72212
4.78	7.76477	4.78	7.63177
4.785	7.83193	4.785	7.5637
4.79	7.88238	4.79	7.51235
4.795	7.92029	4.795	7.47354
4.8	7.9488	4.8	7.44412
4.805	7.97026	4.805	7.42176
4.81	7.98643	4.81	7.40469
4.815	7.99863	4.815	7.39158
4.82	8.00786	4.82	7.38145
4.825	8.01485	4.825	7.37355
4.83	8.02018	4.83	7.36732
4.835	8.02425	4.835	7.36235
4.84	8.02737	4.84	7.35832
4.845	8.0298	4.845	7.355
4.85	7.40621	4.85	7.97768
4.855	7.56186	4.855	7.82112
4.86	7.67868	4.86	7.7034
4.865	7.76637	4.865	7.61481
4.87	7.83221	4.87	7.54807
4.875	7.88167	4.875	7.49771
4.88	7.91883	4.88	7.45964
4.885	7.94678	4.885	7.43078
4.89	7.96782	4.89	7.40884
4.895	7.98367	4.895	7.39209
4.9	7.99564	4.9	7.37922
4.905	8.00469	4.905	7.36927
4.91	8.01155	4.91	7.3615
4.915	7.39129	4.915	7.98086
4.92	7.54944	4.92	7.8218
4.925	7.66813	4.925	7.70221
4.93	7.75722	4.93	7.61222
4.935	7.82411	4.935	7.54442
4.94	7.87435	4.94	7.49328
4.945	7.91211	4.945	7.45462
4.95	7.9405	4.95	7.42532
4.955	7.96187	4.955	7.40305
4.96	7.97797	4.96	7.38605
4.965	7.99012	4.965	7.373
4.97	7.9993	4.97	7.36291
4.975	8.00627	4.975	7.35504
4.98	8.01156	4.98	7.34884
4.985	7.77707	4.985	7.58243
4.99	8.46817	4.99	6.89043
4.995	7.73781	4.995	7.61988
5	20.9627	5	20.6927
5.005	21.0369	5.005	20.6525
5.01	21.097	5.01	20.6264
5.015	21.1465	5.015	20.6109
5.02	21.1881	5.02	20.6033
5.025	21.2237	5.025	20.6017
5.03	21.2548	5.03	20.6046
5.035	21.2826	5.035	20.6108
5.04	21.3079	5.04	20.6195
5.045	21.3313	5.045	20.6301
5.05	21.3533	5.05	20.6422
5.055	21.3742	5.055	20.6552
5.06	21.3943	5.06	20.6691
5.065	21.4139	5.065	20.6836
5.07	21.433	5.07	20.6985
5.075	21.4517	5.075	20.7137
5.08	21.4702	5.08	20.7292
5.085	21.4885	5.085	20.7449
5.09	21.5067	5.09	20.7608
5.095	21.5248	5.095	20.7767
5.1	21.5428	5.1	20.7927
5.105	21.5607	5.105	20.8088
5.11	19.9132	5.11	19.1595
5.115	20.3328	5.115	19.5775
5.12	20.652	5.12	19.895
5.125	20.8958	5.125	20.1372
5.13	21.0831	5.13	20.3229
5.135	19.5625	5.135	18.8008
5.14	20.0774	5.14	19.3142
5.145	20.468	5.145	19.7032
5.15	20.7653	5.15	19.9991
5.155	20.9927	5.155	20.2249
5.16	19.5022	5.16	18.733
5.165	20.0397	5.165	19.2689
5.17	20.8341	5.17	19.2879
5.175	19.387	5.175	18.0227
5.18	20.5824	5.18	18.1031
5.185	19.1947	5.185	17.1253
5.19	19.1836	5.19	18.6723
5.195	18.1375	5.195	17.5478
5.2	19.0082	5.2	18.3593
5.205	18.0001	5.205	17.3065
5.21	19.5247	5.21	17.5462
5.215	19.0093	5.215	16.0624
5.22	18.7906	5.22	18.0915
5.225	18.6942	5.225	16.2232
5.23	17.5084	5.23	15.9146
5.235	16.4633	5.235	15.8181
5.24	17.8649	5.24	16.8701
5.245	17.1144	5.245	16.138
5.25	17.4053	5.25	14.7143
5.255	16.2713	5.255	14.9776
5.26	15.8934	5.26	14.6815
5.265	16.4636	5.265	13.5847
5.27	14.1122	5.27	12.1892
5.275	14.2306	5.275	12.5413
5.28	11.6037	5.28	8.83821
5.285	14.3538	5.285	11.2536
5.29	13.9863	5.29	12.1722
5.295	11.1381	5.295	8.75061
5.3	11.9113	5.3	9.85716
5.305	12.8676	5.305	10.2892
5.31	13.1923	5.31	10.9841
5.315	12.7998	5.315	12.1197
5.32	13.7435	5.32	11.7117
5.325	12.5389	5.325	9.96554
5.33	12.2683	5.33	11.3031
5.335	11.638	5.335	9.38105
5.34	10.5167	5.34	8.53713
5.345	11.7028	5.345	9.15698
5.35	12.1997	5.35	9.99253
5.355	9.23074	5.355	7.2772
5.36	8.62952	5.36	6.86582
5.365	9.81857	5.365	8.19688
5.37	9.03402	5.37	7.51845
5.375	8.42011	5.375	6.98376
5.38	9.59955	5.38	8.22224
5.385	10.4731	5.385	9.13968
5.39	11.1172	5.39	9.81632
5.395	10.3107	5.395	8.26
5.4	8.67289	5.4	8.07411
5.405	8.66762	5.405	6.6599
5.41	9.0546	5.41	8.48731
5.415	8.2915	5.415	7.55762
5.42	7.69342	5.42	6.83421
5.425	9.50994	5.425	7.3054
5.43	6.66841	5.43	5.17812
5.435	8.06909	5.435	6.63129
5.44	3.72507	5.44	3.10016
5.445	5.79014	5.445	5.01079
5.45	5.66206	5.45	4.7665
5.455	3.87457	5.455	2.89149
5.46	5.82416	5.46	4.77506
5.465	7.27475	5.465	6.17577
5.47	4.3948	5.47	4.50899
5.475	6.14822	5.475	5.92537
5.48	-0.875398	5.48	-1.3514
5.485	2.09954	5.485	1.43331
5.49	2.02804	5.49	2.46972
5.495	2.57131	5.495	2.597
5.5	2.95235	5.5	2.66569
5.505	4.87707	5.505	4.35578
5.51	4.64325	5.51	3.94561
5.515	4.44138	5.515	3.61111
5.52	5.30334	5.52	5.62419
5.525	4.89563	5.525	4.8329
5.53	4.56324	5.53	4.21246
5.535	5.9527	5.535	5.38551
5.54	5.0787	5.54	4.82591
5.545	4.63791	5.545	4.13774
5.55	2.61518	5.55	1.9291
5.555	2.48369	5.555	2.13489
5.56	4.26504	5.56	3.68601
5.565	1.87096	5.565	1.89279
5.57	4.13359	5.57	3.06808
5.575	5.04931	5.575	4.70556
5.58	2.14925	5.58	2.83368
5.585	4.27371	5.585	3.70847
5.59	5.47265	5.59	4.73353
5.595	2.78999	5.595	2.39716
5.6	4.30858	5.6	3.6923
5.605	5.4349	5.605	4.65067
5.61	2.69767	5.61	2.26419
5.615	4.17524	5.615	3.52164
5.62	1.70137	5.62	1.35939
5.625	3.37638	5.625	2.78495
5.63	4.2329	5.63	4.22791
5.635	3.96588	5.635	2.86275
5.64	4.39631	5.64	4.48391
5.645	5.32953	5.645	5.06327
5.65	4.49957	5.65	3.67073
5.655	5.37459	5.655	4.4044
5.66	6.01791	5.66	4.94134
5.665	4.97044	5.665	3.51691
5.67	5.68227	5.67	4.22657
5.675	7.8685	5.675	6.41084
5.68	6.5658	5.68	4.33242
5.685	6.84473	5.685	4.79294
5.69	7.04085	5.69	5.1249
5.695	6.93629	5.695	5.59894
5.7	7.08615	5.7	5.69958
5.705	7.1854	5.705	5.76157
5.71	5.34274	5.71	4.36769
5.715	7.89218	5.715	5.99666
5.72	7.37135	5.72	6.32275
5.725	6.21934	5.725	3.97113
5.73	6.47063	5.73	4.36702
5.735	7.03276	5.735	4.26336
5.74	7.0592	5.74	4.55383
5.745	7.45264	5.745	4.37108
5.75	8.39244	5.75	6.89307
5.755	8.44328	5.755	6.10976
5.76	8.08617	5.76	5.89044
5.765	9.47037	5.765	7.37763
5.77	9.23118	5.77	6.44146
5.775	8.65653	5.775	6.10745
5.78	9.63899	5.78	7.74711
5.785	9.33987	5.785	6.68385
5.79	8.72023	5.79	6.2545
5.795	8.62899	5.795	5.53173
5.8	9.59208	5.8	7.26164
5.805	8.89143	5.805	6.65295
5.81	8.35245	5.81	6.18259
5.815	9.98704	5.815	7.09442
5.82	9.16671	5.82	6.49541
5.825	8.92488	5.825	5.64534
5.83	8.34808	5.83	5.37575
5.835	9.95425	5.835	6.43809
5.84	10.1525	5.84	8.24279
5.845	9.25993	5.845	7.30824
5.85	10.2423	5.85	8.25879
5.855	11.367	5.855	8.58532
5.86	10.1641	5.86	7.54727
5.865	9.24838	5.865	6.75478
5.87	10.6003	5.87	7.42489
5.875	10.8462	5.875	8.69682
5.88	11.4135	5.88	9.26944
5.885	10.1744	5.885	8.03404
5.89	10.8968	5.89	8.75889
5.895	11.0525	5.895	9.69
5.9	11.552	5.9	10.007
5.905	10.649	5.905	8.19288
5.91	11.2417	5.91	8.86557
5.915	11.3	5.915	9.75752
5.92	11.7265	5.92	10.0451
5.925	10.7687	5.925	8.20897
5.93	11.3203	5.93	8.86509
5.935	11.3478	5.935	9.74461
5.94	10.4726	5.94	7.97051
5.945	10.6991	5.945	9.06011
5.95	10.6262	5.95	10.1214
5.955	11.8211	5.955	9.66903
5.96	10.0424	5.96	8.67505
5.965	10.7419	5.965	9.19903
5.97	10.8804	5.97	9.9794
5.975	10.9799	5.975	10.5702
5.98	11.4372	5.98	10.6319
5.985	9.72864	5.985	9.40012
5.99	10.4807	5.99	9.74575
5.995	11.0455	5.995	10.0054
6	9.41754	6	8.92209
6.005	9.8431	6.005	9.76598
6.01	10.5449	6.01	10.0174
6.015	11.072	6.015	10.2064
6.02	11.081	6.02	10.7355
6.025	9.41812	6.025	9.47244
6.03	10.2044	6.03	9.79452
6.035	10.4079	6.035	10.4234
6.04	10.5562	6.04	10.9005
6.045	9.62306	6.045	8.97298
6.05	9.94648	6.05	9.80691
6.055	10.5716	6.055	10.0509
6.06	10.2673	6.06	11.0081
6.065	10.8034	6.065	10.9626
6.07	10.8193	6.07	11.3158
6.075	9.16146	6.075	9.92078
6.08	9.9515	6.08	10.1439
6.085	10.1578	6.085	10.6985
6.09	10.3081	6.09	11.1198
6.095	10.8033	6.095	11.0543
6.1	9.7486	6.1	9.10164
6.105	9.98076	6.105	9.91668
6.11	10.1505	6.11	10.5334
6.115	7.83402	6.115	10.1098
6.12	8.50688	6.12	10.6846
6.125	9.00709	6.125	11.1211
6.13	7.71241	6.13	9.78852
6.135	8.38783	6.135	10.4453
6.14	9.27689	6.14	10.5563
6.145	9.7959	6.145	10.7883
6.15	10.3262	6.15	10.8221
6.155	8.67227	6.155	9.56925
6.16	9.07822	6.16	10.2859
6.165	9.3782	6.165	10.8287
6.17	7.93332	6.17	9.57573
6.175	8.49605	6.175	10.2922
6.18	8.91361	6.18	10.8349
6.185	9.60923	6.185	10.8603
6.19	9.74459	6.19	11.2666
6.195	8.17621	6.195	9.91121
6.2	9.27179	6.2	9.92539
6.205	9.46569	6.205	10.5646
6.21	9.99355	6.21	10.6624
6.215	7.95072	6.215	9.84441
6.22	8.44683	6.22	10.5053
6.225	7.53593	6.225	8.95384
6.23	8.11723	6.23	9.8283
6.235	8.9356	6.235	10.1025
6.24	9.16296	6.24	10.6952
6.245	8.67596	6.245	8.46722
6.25	8.9519	6.25	9.45751
6.255	9.54123	6.255	9.81852
6.26	9.59679	6.26	10.4764
6.265	10.0208	6.265	10.5881
6.27	8.674	6.27	9.00664
6.275	8.9283	6.275	9.85854
6.28	9.50139	6.28	10.1157
6.285	9.9317	6.285	10.3088
6.29	8.20258	6.29	9.17527
6.295	8.93897	6.295	9.59428
6.3	9.49174	6.3	9.90867
6.305	9.51984	6.305	10.5315
6.31	8.25786	6.31	8.95155
6.315	8.96273	6.315	9.41756
6.32	9.49183	6.32	9.76718
6.325	10.5146	6.325	9.40402
6.33	10.2719	6.33	10.142
6.335	8.8068	6.335	8.64828
6.34	9.35931	6.34	9.179
6.345	9.77413	6.345	9.57712
6.35	10.0857	6.35	9.8758
6.355	10.3198	6.355	10.0999
6.36	8.83039	6.36	8.60266
6.365	9.36466	6.365	9.1307
6.37	9.76578	6.37	9.52679
6.375	10.067	6.375	9.82393
6.38	8.62801	6.38	8.38145
6.385	9.20002	6.385	8.95054
6.39	9.62943	6.39	9.37741
6.395	9.56494	6.395	10.0845
6.4	9.89883	6.4	10.2331
6.405	10.5366	6.405	9.9576
6.41	10.6335	6.41	10.1329
6.415	9.0411	6.415	8.59902
6.42	9.4981	6.42	9.09954
6.425	9.84124	6.425	9.47496
6.43	10.099	6.43	9.75655
6.435	10.2926	6.435	9.96777
6.44	10.4383	6.44	10.1262
6.445	8.88249	6.445	8.57969
6.45	9.3669	6.45	9.0707
6.455	9.73056	6.455	9.43896
6.46	10.0037	6.46	9.71517
6.465	10.2089	6.465	9.92234
6.47	10.7501	6.47	9.69078
6.475	9.10906	6.475	8.23359
6.48	9.52955	6.48	8.79158
6.485	9.84525	6.485	9.21007
6.49	10.0824	6.49	9.52393
6.495	10.2605	6.495	9.75931
6.5	10.3945	6.5	9.93584
6.505	10.4953	6.505	10.0682
6.51	9.29285	6.51	8.11517
6.515	9.66033	6.515	8.6831
6.52	9.93626	6.52	9.10903
6.525	10.1435	6.525	9.42844
6.53	10.2993	6.53	9.66798
6.535	10.4165	6.535	9.8476
6.54	10.8916	6.54	9.59534
6.545	10.8664	6.545	9.78799
6.55	9.18242	6.55	8.26705
6.555	9.57064	6.555	8.77719
6.56	9.8621	6.56	9.15975
6.565	10.081	6.565	9.44662
6.57	10.871	6.57	9.03625
6.575	10.215	6.575	9.97718
6.58	10.3466	6.58	10.0596
6.585	10.8325	6.585	9.73434
6.59	10.8154	6.59	9.87225
6.595	9.13748	6.595	8.31024
6.6	9.53021	6.6	8.78956
6.605	9.82504	6.605	9.14898
6.61	10.0465	6.61	9.41848
6.615	10.2128	6.615	9.62054
6.62	10.3378	6.62	9.77202
6.625	10.4319	6.625	9.88557
6.63	10.5027	6.63	9.97066
6.635	10.5561	6.635	10.0344
6.64	10.5965	6.64	10.0822
6.645	10.627	6.645	10.1179
6.65	10.6502	6.65	10.1446
6.655	9.00245	6.655	8.49924
6.66	9.41782	6.66	8.916
6.665	9.7296	6.665	9.22848
6.67	9.96371	6.67	9.46275
6.675	10.1395	6.675	9.63838
6.68	10.2717	6.68	9.77001
6.685	10.3711	6.685	9.86865
6.69	10.4459	6.69	9.94254
6.695	10.5022	6.695	9.99787
6.7	10.5448	6.7	10.0393
6.705	10.5769	6.705	10.0703
6.71	10.6013	6.71	10.0934
6.715	10.6199	6.715	10.1107
6.72	10.634	6.72	10.1236
6.725	10.6449	6.725	10.1331
6.73	8.98798	6.73	8.47483
6.735	9.3964	6.735	8.88189
6.74	9.31601	6.74	9.57403
6.745	9.63783	6.745	9.71116
6.75	9.87944	6.75	9.81391
6.755	10.0609	6.755	9.89086
6.76	10.1972	6.76	9.94847
6.765	10.2997	6.765	9.99158
6.77	10.3768	6.77	10.0238
6.775	10.048	6.775	10.4348
6.78	10.1834	6.78	10.3611
6.785	10.2853	6.785	10.3057
6.79	10.3619	6.79	10.2641
6.795	10.4196	6.795	10.2327
6.8	10.4631	6.8	10.2091
6.805	10.496	6.805	10.1913
6.81	10.134	6.81	10.5648
6.815	10.2446	6.815	10.4629
6.82	8.66238	6.82	8.72105
6.825	8.50135	6.825	9.69088
6.83	9.00409	6.83	9.79486
6.835	9.38136	6.835	9.87272
6.84	9.27759	6.84	10.3179
6.845	9.58186	6.845	10.2699
6.85	9.81028	6.85	10.2337
6.855	9.98182	6.855	10.2064
6.86	9.72376	6.86	10.5728
6.865	9.9123	6.865	10.4656
6.87	10.0539	6.87	10.3851
6.875	10.1604	6.875	10.3246
6.88	10.2404	6.88	10.2791
6.885	10.3007	6.885	10.2448
6.89	10.3461	6.89	10.219
6.895	10.3804	6.895	10.1995
6.9	10.4064	6.9	10.1848
6.905	10.4261	6.905	10.1736
6.91	10.0541	6.91	10.5521
6.915	10.1572	6.915	10.4539
6.92	9.6093	6.92	11.0057
6.925	9.82186	6.925	10.7961
6.93	9.98151	6.93	10.6388
6.935	8.43607	6.935	8.85525
6.94	8.92808	6.94	9.16838
6.945	9.2973	6.945	9.40308
6.95	9.57442	6.95	9.57897
6.955	9.78246	6.955	9.71074
6.96	9.9387	6.96	9.80943
6.965	10.0561	6.965	9.88331
6.97	10.1443	6.97	9.93858
6.975	10.2107	6.975	9.97989
6.98	10.2607	6.98	10.0107
6.985	10.2984	6.985	10.0337
6.99	10.3269	6.99	10.0508
6.995	10.3484	6.995	10.0635
7	9.73934	7	10.6984
7.005	9.90599	7.005	10.5511
7.01	10.0312	7.01	10.4405
7.015	10.1253	7.015	10.3574
7.02	10.196	7.02	10.295
7.025	10.2493	7.025	10.248
7.03	10.2895	7.03	10.2126
7.035	10.3198	7.035	10.1859
7.04	10.3428	7.04	10.1658
7.045	10.3602	7.045	10.1505
7.05	10.7604	7.05	9.75203
7.055	10.6789	7.055	9.83486
7.06	10.618	7.06	9.89685
7.065	9.94702	7.065	10.5687
7.07	10.0673	7.07	10.4491
7.075	10.1577	7.075	10.3593
7.08	10.2256	7.08	10.2919
7.085	10.2768	7.085	10.2411
7.09	10.3154	7.09	10.2029
7.095	10.3446	7.095	10.1741
7.1	10.3667	7.1	10.1524
7.105	10.3834	7.105	10.136
7.11	10.7831	7.11	9.73654
7.115	10.7013	7.115	9.81871
7.12	10.0146	7.12	10.5057
7.125	10.123	7.125	10.3975
7.13	10.2046	7.13	10.3162
7.135	10.2659	7.135	10.2551
7.14	10.3122	7.14	10.2092
7.145	10.734	7.145	9.7876
7.15	10.6687	7.15	9.85317
7.155	10.6199	7.155	9.9022
7.16	10.5835	7.16	9.93884
7.165	10.5564	7.165	9.96618
7.17	9.91085	7.17	10.612
7.175	10.0501	7.175	10.473
7.18	10.1548	7.18	10.3686
7.185	8.95504	7.185	8.23782
7.19	9.32443	7.19	8.67233
7.195	9.60166	7.195	8.99806
7.2	9.80976	7.2	9.2422
7.205	9.96602	7.205	9.42515
7.21	10.0834	7.21	9.56221
7.215	10.1716	7.215	9.66485
7.22	9.61246	7.22	10.3671
7.225	10.2035	7.225	9.8835
7.23	10.2651	7.23	9.90248
7.235	10.3115	7.235	9.91655
7.24	10.3465	7.24	9.92695
7.245	10.3729	7.245	9.9346
7.25	10.3928	7.25	9.94018
7.255	9.78253	7.255	10.5697
7.26	10.3352	7.26	10.0315
7.265	9.98106	7.265	10.3964
7.27	10.4845	7.27	9.9012
7.275	10.4803	7.275	9.91148
7.28	10.4774	7.28	9.91904
7.285	10.4754	7.285	9.92456
7.29	10.474	7.29	9.92854
7.295	10.4732	7.295	9.93138
7.3	10.4728	7.3	9.93335
7.305	9.84715	7.305	10.5602
7.31	10.3883	7.31	10.0199
7.315	10.4125	7.315	9.9964
7.32	10.4309	7.32	9.97863
7.325	10.4448	7.325	9.96514
7.33	10.4554	7.33	9.95488
7.335	9.83806	7.335	10.5725
7.34	9.99851	7.34	10.4123
7.345	10.119	7.345	10.292
7.35	10.2096	7.35	10.2016
7.355	10.2777	7.355	10.1337
7.36	10.3289	7.36	10.0826
7.365	10.3676	7.365	10.0441
7.37	10.3967	7.37	10.0151
7.375	10.8057	7.375	9.60623
7.38	10.7307	7.38	9.6813
7.385	10.6747	7.385	9.73745
7.39	10.0074	7.39	10.4049
7.395	10.1303	7.395	10.282
7.4	10.2227	7.4	10.1898
7.405	10.2922	7.405	10.1204
7.41	10.3444	7.41	10.0682
7.415	10.3838	7.415	10.0289
7.42	10.4135	7.42	9.99933
7.425	9.81053	7.425	10.6025
7.43	9.98172	7.43	10.4314
7.435	10.1103	7.435	10.3029
7.44	10.5938	7.44	9.81946
7.445	10.5748	7.445	9.8386
7.45	10.5607	7.45	9.8528
7.455	10.5503	7.455	9.8633
7.46	10.5427	7.46	9.87102
7.465	9.91166	7.465	10.5021
7.47	10.0618	7.47	10.3521
7.475	10.1747	7.475	10.2394
7.48	10.2594	7.48	10.1547
7.485	10.3232	7.485	10.091
7.49	10.3712	7.49	10.0431
7.495	9.78189	7.495	10.6325
7.5	9.96335	7.5	10.4512
7.505	10.0996	7.505	10.315
7.51	10.202	7.51	10.2127
7.515	10.279	7.515	10.1359
7.52	10.3369	7.52	10.0781
7.525	10.3804	7.525	10.0346
7.53	8.74792	7.53	8.33642
7.535	9.17457	7.535	8.71353
7.54	8.86923	7.54	9.62167
7.545	9.26366	7.545	9.67933
7.55	9.55963	7.55	9.72242
7.555	10.1687	7.555	9.36762
7.56	10.2438	7.56	9.48321
7.565	9.6748	7.565	10.1952
7.57	9.87147	7.57	10.1058
7.575	10.0191	7.575	10.0386
7.58	10.13	7.58	9.98797
7.585	10.2133	7.585	9.94986
7.59	10.276	7.59	9.92111
7.595	10.3231	7.595	9.89938
7.6	9.73316	7.6	10.5084
7.605	9.9141	7.605	10.3417
7.61	10.05	7.61	10.2166
7.615	10.539	7.615	9.73557
7.62	10.137	7.62	10.1435
7.625	10.2176	7.625	10.0674
7.63	10.6652	7.63	9.62319
7.635	10.6191	7.635	9.67175
7.64	9.95921	7.64	10.3335
7.645	10.0877	7.645	10.2064
7.65	10.1843	7.65	10.1108
7.655	10.2568	7.655	10.039
7.66	10.3114	7.66	9.98503
7.665	10.3525	7.665	9.94436
7.67	9.75794	7.67	10.5392
7.675	9.93547	7.675	10.3618
7.68	10.4557	7.68	9.84174
7.685	10.4642	7.685	9.83337
7.69	10.4707	7.69	9.82692
7.695	10.4757	7.695	9.82193
7.7	10.4796	7.7	9.81802
7.705	10.4827	7.705	9.81492
7.71	9.8597	7.71	10.4379
7.715	10.0159	7.715	10.2817
7.72	10.1331	7.72	10.1644
7.725	10.6082	7.725	9.68934
7.73	10.5828	7.73	9.71473
7.735	10.5638	7.735	9.73362
7.74	9.9243	7.74	10.3731
7.745	10.0681	7.745	10.2293
7.75	10.1761	7.75	10.1212
7.755	10.2572	7.755	10.0401
7.76	10.3182	7.76	9.97901
7.765	10.3641	7.765	9.93307
7.77	10.3987	7.77	9.89845
7.775	9.79926	7.775	10.4978
7.78	9.97312	7.78	10.3239
7.785	10.4906	7.785	9.80634
7.79	10.497	7.79	9.79989
7.795	10.502	7.795	9.79489
7.8	10.5058	7.8	9.79098
7.805	10.5089	7.805	9.78789
7.81	10.5113	7.81	9.78541
7.815	9.88778	7.815	10.4089
7.82	10.0436	7.82	10.253
7.825	10.1605	7.825	10.136
7.83	10.2484	7.83	10.0481
7.835	10.7014	7.835	9.59501
7.84	10.6595	7.84	9.63692
7.845	10.6281	7.845	9.6682
7.85	9.97931	7.85	10.317
7.855	10.1161	7.855	10.1801
7.86	10.2188	7.86	10.0773
7.865	10.296	7.865	10.0001
7.87	10.3541	7.87	9.94199
7.875	10.3978	7.875	9.89826
7.88	10.4307	7.88	9.86531
7.885	10.4555	7.885	9.84043
7.89	9.84879	7.89	10.4471
7.895	10.0172	7.895	10.2787
7.9	10.1436	7.9	10.1522
7.905	10.2386	7.905	10.0572
7.91	10.3099	7.91	9.98575
7.915	10.3636	7.915	9.93203
7.92	10.404	7.92	9.89158
7.925	10.4344	7.925	9.86109
7.93	9.83193	7.93	10.4635
7.935	10.0035	7.935	10.292
7.94	10.1323	7.94	10.1631
7.945	10.229	7.945	10.0663
7.95	10.3017	7.95	9.99357
7.955	10.3564	7.955	9.93885
7.96	10.3975	7.96	9.89766
7.965	10.4285	7.965	9.86661
7.97	10.4519	7.97	9.84316
7.975	9.84411	7.975	10.4509
7.98	10.0117	7.98	10.2833
7.985	10.1375	7.985	10.1574
7.99	10.232	7.99	10.0629
7.995	10.303	7.995	9.99178
8	10.3564	8	9.93832
8.005	10.3966	8.005	9.89807
8.01	10.4269	8.01	9.86772
8.015	10.4498	8.015	9.84481
8.02	10.4671	8.02	9.82747
8.025	10.4802	8.025	9.81431
8.03	9.86468	8.03	10.4298
8.035	10.0265	8.035	10.2679
8.04	10.1479	8.04	10.1464
8.045	10.2392	8.045	10.0551
8.05	10.3078	8.05	9.98647
8.055	10.3593	8.055	9.93485
8.06	10.3982	8.06	9.89597
8.065	10.4274	8.065	9.86666
8.07	10.4495	8.07	9.84453
8.075	10.4662	8.075	9.82777
8.08	9.85341	8.08	10.4405
8.085	10.0172	8.085	10.2767
8.09	10.1402	8.09	10.1536
8.095	10.2326	8.095	10.0612
8.1	10.302	8.1	9.99171
8.105	10.3542	8.105	9.93945
8.11	10.3935	8.11	9.9001
8.115	9.79767	8.115	10.4959
8.12	9.97418	8.12	10.3193
8.125	10.1067	8.125	10.1868
8.13	10.2062	8.13	10.0872
8.135	10.281	8.135	10.0123
8.14	10.3373	8.14	9.95607
8.145	10.3796	8.145	9.9137
8.15	10.4114	8.15	9.88178
8.155	10.4355	8.155	9.85768
8.16	10.4537	8.16	9.83946
8.165	10.4674	8.165	9.82564
8.17	9.85242	8.17	10.4406
8.175	10.0146	8.175	10.2784
8.18	10.1363	8.18	10.1566
8.185	10.2278	8.185	10.0651
8.19	10.2965	8.19	9.99632
8.195	10.3482	8.195	9.94458
8.2	10.3871	8.2	9.90563
8.205	9.79092	8.205	10.5017
8.21	9.9672	8.21	10.3254
8.215	10.0996	8.215	10.193
8.22	9.81201	8.22	10.4805
8.225	9.97835	8.225	10.3141
8.23	10.1032	8.23	10.1892
8.235	10.1971	8.235	10.0953
8.24	10.2675	8.24	10.0248
8.245	10.3206	8.245	9.9717
8.25	9.73497	8.25	10.5572
8.255	9.91919	8.255	10.373
8.26	10.0575	8.26	10.2346
8.265	10.1613	8.265	10.1307
8.27	10.2394	8.27	10.0526
8.275	10.298	8.275	9.9939
8.28	10.3422	8.28	9.94972
8.285	10.3754	8.285	9.91643
8.29	10.4005	8.29	9.89132
8.295	10.4194	8.295	9.87233
8.3	9.80826	8.3	10.4834
8.305	9.97331	8.305	10.3183
8.31	10.0972	8.31	10.1944
8.315	10.1903	8.315	10.1012
8.32	10.2603	8.32	10.0312
8.325	10.3129	8.325	9.97858
8.33	10.3524	8.33	9.93895
8.335	10.3823	8.335	9.90908
8.34	10.4048	8.34	9.88653
8.345	10.4218	8.345	9.86946
8.35	9.80918	8.35	10.482
8.355	9.97315	8.355	10.318
8.36	10.0963	8.36	10.1948
8.365	10.1887	8.365	10.1023
8.37	10.2582	8.37	10.0328
8.375	10.6974	8.375	9.59352
8.38	10.2581	8.38	10.0327
8.385	10.3107	8.385	9.98016
8.39	10.7371	8.39	9.55362
8.395	10.2883	8.395	10.0024
8.4	10.0952	8.4	10.1955
8.405	10.1919	8.405	10.0987
8.41	10.2645	8.41	10.026
8.415	10.3191	8.415	9.97138
8.42	10.3602	8.42	9.93023
8.425	10.3912	8.425	9.89922
8.43	10.4145	8.43	9.87582
8.435	10.4322	8.435	9.85812
8.44	10.4456	8.44	9.8447
8.445	9.83024	8.445	10.46
8.45	9.99215	8.45	10.298
8.455	10.1137	8.455	10.1764
8.46	10.205	8.46	10.085
8.465	10.2736	8.465	10.0164
8.47	10.3252	8.47	9.96472
8.475	10.3641	8.475	9.92584
8.48	10.3933	8.48	9.89653
8.485	10.4154	8.485	9.87441
8.49	10.4321	8.49	9.85767
8.495	9.81924	8.495	10.4705
8.5	9.98302	8.5	10.3066
8.505	10.106	8.505	10.1836
8.51	10.1983	8.51	10.0912
8.515	10.2677	8.515	10.0217
8.52	10.3199	8.52	9.96951
8.525	10.3592	8.525	9.93019
8.53	10.3888	8.53	9.90056
8.535	10.4111	8.535	9.87819
8.54	10.428	8.54	9.86127
8.545	10.4408	8.545	9.84843
8.55	9.82499	8.55	10.4641
8.555	9.98657	8.555	10.3025
8.56	10.1079	8.56	10.1811
8.565	10.199	8.565	10.09
8.57	10.2675	8.57	10.0214
8.575	10.319	8.575	9.96992
8.58	10.3577	8.58	9.93112
8.585	10.3869	8.585	9.90188
8.59	10.4089	8.59	9.87981
8.595	10.4256	8.595	9.86311
8.6	10.4382	8.6	9.85044
8.605	9.82229	8.605	10.4663
8.61	9.98378	8.61	10.3047
8.615	10.105	8.615	10.1834
8.62	10.1961	8.62	10.0923
8.625	10.2645	8.625	10.0239
8.63	10.316	8.63	9.97235
8.635	10.3547	8.635	9.93358
8.64	10.3838	8.64	9.90437
8.645	10.4059	8.645	9.88231
8.65	10.4225	8.65	9.86562
8.655	9.80961	8.655	10.4784
8.66	9.97336	8.66	10.3147
8.665	10.0963	8.665	10.1917
8.67	8.52323	8.67	8.43388
8.675	8.99443	8.675	8.76628
8.68	8.961	8.68	9.40237
8.685	9.70484	8.685	9.11046
8.69	9.88097	8.69	9.27323
8.695	9.3877	8.695	10.0206
8.7	9.25418	8.7	10.3447
8.705	9.53601	8.705	10.2057
8.71	10.1344	8.71	9.71437
8.715	9.81456	8.715	10.1145
8.72	9.95662	8.72	10.0326
8.725	10.0633	8.725	9.97101
8.73	10.1434	8.73	9.92465
8.735	10.2036	8.735	9.88973
8.74	10.2488	8.74	9.86337
8.745	9.65738	8.745	10.4689
8.75	9.83718	8.75	10.2997
8.755	9.97214	8.755	10.1726
8.76	10.0735	8.76	10.0771
8.765	10.1496	8.765	10.0053
8.77	10.2068	8.77	9.9513
8.775	10.2498	8.775	9.91064
8.78	10.2821	8.78	9.88
8.785	10.3065	8.785	9.85685
8.79	10.3249	8.79	9.83933
8.795	9.71329	8.795	10.4515
8.8	9.87798	8.8	10.2872
8.805	10.0016	8.805	10.1638
8.81	10.0944	8.81	10.0712
8.815	10.1642	8.815	10.0015
8.82	10.2166	8.82	9.94907
8.825	10.256	8.825	9.9096
8.83	10.2856	8.83	9.87984
8.835	10.308	8.835	9.85736
8.84	10.3249	8.84	9.84034
8.845	10.3376	8.845	9.82742
8.85	9.72182	8.85	10.4431
8.855	9.88334	8.855	10.2814
8.86	10.0046	8.86	10.1599
8.865	10.0956	8.865	10.0687
8.87	10.164	8.87	10.0001
8.875	10.2154	8.875	9.94851
8.88	10.2541	8.88	9.90965
8.885	10.2832	8.885	9.88036
8.89	10.3051	8.89	9.85823
8.895	9.69617	8.895	10.467
8.9	9.86285	8.9	10.3001
8.905	9.98797	8.905	10.1748
8.91	10.0819	8.91	10.0806
8.915	10.1525	8.915	10.0098
8.92	10.2055	8.92	9.95662
8.925	10.2454	8.925	9.91654
8.93	10.2754	8.93	9.88632
8.935	10.298	8.935	9.86351
8.94	10.3151	8.94	9.84624
8.945	10.328	8.945	9.83313
8.95	10.3377	8.95	9.82314
8.955	9.7197	8.955	10.441
8.96	9.87955	8.96	10.2809
8.965	9.99954	8.965	10.1607
8.97	10.0896	8.97	10.0704
8.975	10.1573	8.975	10.0026
8.98	10.5951	8.98	9.56454
8.985	10.5417	8.985	9.61774
8.99	10.5018	8.99	9.65749
8.995	10.4719	8.995	9.68714
9	10.4496	9	9.70923
9.005	9.80751	9.005	10.3511
9.01	9.94932	9.01	10.2091
9.015	10.0558	9.015	10.1024
9.02	11.8011	9.02	11.6877
9.025	11.4594	9.025	11.2256
9.03	11.2032	9.03	10.8789
9.035	11.0111	9.035	10.6187
9.04	10.8672	9.04	10.4235
9.045	10.7594	9.045	10.2769
9.05	10.6787	9.05	10.1668
9.055	10.6183	9.055	10.0841
9.06	10.5731	9.06	10.022
9.065	10.5393	9.065	9.97525
9.07	9.8886	9.07	10.5655
9.075	10.024	9.075	10.3848
9.08	10.1256	9.08	10.2492
9.085	10.202	9.085	10.1473
9.09	10.2594	9.09	10.0708
9.095	10.3025	9.095	10.0132
9.1	10.335	9.1	9.96995
9.105	10.3595	9.105	9.93735
9.11	10.378	9.11	9.91277
9.115	10.392	9.115	9.8942
9.12	10.4026	9.12	9.88014
9.125	10.4107	9.125	9.86945
9.13	9.79141	9.13	10.4868
9.135	9.95033	9.135	10.3264
9.14	10.0696	9.14	10.206
9.145	10.1592	9.145	10.1155
9.15	10.2266	9.15	10.0475
9.155	10.2772	9.155	9.9964
9.16	10.3153	9.16	9.95793
9.165	10.3439	9.165	9.92894
9.17	10.3656	9.17	9.90707
9.175	10.3819	9.175	9.89053
9.18	10.3943	9.18	9.878
9.185	10.4037	9.185	9.86846
9.19	9.78537	9.19	10.4867
9.195	9.94503	9.195	10.3269
9.2	10.0649	9.2	10.207
9.205	10.1549	9.205	10.1169
9.21	10.2225	9.21	10.0492
9.215	10.2734	9.215	9.99825
9.22	10.3116	9.22	9.95993
9.225	10.3405	9.225	9.93106
9.23	10.3622	9.23	9.90928
9.235	10.3786	9.235	9.89281
9.24	10.391	9.24	9.88033
9.245	10.4005	9.245	9.87084
9.25	10.4077	9.25	9.86358
9.255	10.4132	9.255	9.85801
9.26	9.79196	9.26	10.4792
9.265	9.94943	9.265	10.3217
9.27	10.0677	9.27	10.2034
9.275	10.1564	9.275	10.1145
9.28	10.2232	9.28	10.0478
9.285	9.88635	9.285	10.3845
9.29	10.4027	9.29	9.86814
9.295	10.0212	9.295	10.2495
9.3	10.1171	9.3	10.1536
9.305	10.1892	9.305	10.0815
9.31	10.2433	9.31	10.0273
9.315	10.2841	9.315	9.98651
9.32	10.3147	9.32	9.95579
9.325	9.71237	9.325	10.5581
9.33	9.88399	9.33	10.3864
9.335	10.0128	9.335	10.2575
9.34	10.1096	9.34	10.1608
9.345	10.1822	9.345	10.088
9.35	10.2369	9.35	10.0334
9.355	10.2779	9.355	9.99223
9.36	10.3089	9.36	9.96124
9.365	10.3322	9.365	9.93788
9.37	10.3498	9.37	9.92022
9.375	10.3631	9.375	9.90685
9.38	10.3732	9.38	9.89669
9.385	9.75543	9.385	10.5144
9.39	9.91548	9.39	10.3543
9.395	10.0356	9.395	10.2341
9.4	10.1259	9.4	10.1438
9.405	10.1937	9.405	10.076
9.41	10.2446	9.41	10.025
9.415	10.283	9.415	9.98659
9.42	10.3118	9.42	9.95767
9.425	10.3336	9.425	9.93586
9.43	10.35	9.43	9.91936
9.435	10.3625	9.435	9.90686
9.44	10.3719	9.44	9.89736
9.445	10.3791	9.445	9.8901
9.45	10.3847	9.45	9.88453
9.455	10.3889	9.455	9.88022
9.46	10.3922	9.46	9.87686
9.465	9.76934	9.465	10.4997
9.47	9.92557	9.47	10.3434
9.475	10.0429	9.475	10.2261
9.48	10.1309	9.48	10.138
9.485	10.1971	9.485	10.0717
9.49	10.2469	9.49	10.0219
9.495	10.2843	9.495	9.98445
9.5	10.3125	9.5	9.95622
9.505	10.3337	9.505	9.93491
9.51	10.3498	9.51	9.91881
9.515	10.3619	9.515	9.9066
9.52	10.3712	9.52	9.89731
9.525	9.99126	9.525	10.2772
9.53	9.46283	9.53	10.8055
9.535	10.0768	9.535	10.1915
9.54	9.76865	9.54	10.4996
9.545	9.91949	9.545	10.3487
9.55	10.4197	9.55	9.84849
9.555	10.0261	9.555	10.242
9.56	10.1129	9.56	10.1551
9.565	10.5651	9.565	9.70291
9.57	10.1355	9.57	10.1324
9.575	10.1953	9.575	10.0726
9.58	10.2403	9.58	10.0276
9.585	10.2741	9.585	9.99367
9.59	10.6866	9.59	9.58118
9.595	10.2272	9.595	10.0405
9.6	10.2647	9.6	10.003
9.605	9.6674	9.605	10.6002
9.61	9.84283	9.61	10.4247
9.615	9.97451	9.615	10.293
9.62	10.0734	9.62	10.1941
9.625	10.1477	9.625	10.1197
9.63	10.2035	9.63	10.0639
9.635	10.2455	9.635	10.0218
9.64	10.277	9.64	9.9902
9.645	8.63546	9.645	8.30094
9.65	9.05526	9.65	8.68475
9.655	9.3702	9.655	8.97245
9.66	9.6065	9.66	9.18809
9.665	9.78382	9.665	9.34967
9.67	9.67837	9.67	9.70924
9.675	9.45384	9.675	10.1243
9.68	10.0543	9.68	9.66667
9.685	9.73601	9.685	10.0921
9.69	10.2662	9.69	9.64222
9.695	10.282	9.695	9.68652
9.7	10.294	9.7	9.71961
9.705	10.303	9.705	9.74428
9.71	10.3099	9.71	9.76264
9.715	10.3152	9.715	9.77626
9.72	10.3193	9.72	9.78634
9.725	10.3224	9.725	9.79375
9.73	10.3248	9.73	9.79916
9.735	10.3267	9.735	9.80308
9.74	9.7028	9.74	10.4314
9.745	9.8582	9.745	10.2791
9.75	9.97485	9.75	10.1648
9.755	10.0624	9.755	10.079
9.76	10.1282	9.76	10.0144
9.765	10.1776	9.765	9.96587
9.77	10.2148	9.77	9.92931
9.775	10.2427	9.775	9.90175
9.78	10.2638	9.78	9.88093
9.785	10.2797	9.785	9.86518
9.79	10.2917	9.79	9.85322
9.795	10.3008	9.795	9.84411
9.8	10.3077	9.8	9.83713
9.805	10.313	9.805	9.83175
9.81	11.9825	9.81	11.493
9.815	10.9583	9.815	11.7133
9.82	10.8135	9.82	11.2552
9.825	10.7051	9.825	10.9115
9.83	10.6239	9.83	10.6536
9.835	10.563	9.835	10.4601
9.84	10.5176	9.84	10.3148
9.845	10.4835	9.845	10.2057
9.85	10.4581	9.85	10.1238
9.855	10.4392	9.855	10.0622
9.86	10.4251	9.86	10.0159
9.865	10.8016	9.865	9.59407
9.87	10.7022	9.87	9.65947
9.875	10.6278	9.875	9.70839
9.88	10.5721	9.88	9.74495
9.885	10.5304	9.885	9.77226
9.89	10.4992	9.89	9.79261
9.895	9.85052	9.895	10.4332
9.9	9.98735	9.9	10.2903
9.905	10.0901	9.905	10.183
9.91	10.1672	9.91	10.1024
9.915	10.2252	9.915	10.0418
9.92	10.2688	9.92	9.99623
9.925	10.3016	9.925	9.96194
9.93	10.3263	9.93	9.9361
9.935	10.345	9.935	9.9166
9.94	10.3591	9.94	9.90185
9.945	10.3698	9.945	9.89066
9.95	10.3779	9.95	9.88215
9.955	10.3841	9.955	9.87565
9.96	10.3888	9.96	9.87065
9.965	10.3925	9.965	9.86677
9.97	10.3954	9.97	9.86375
9.975	9.77217	9.975	10.4868
9.98	9.92814	9.98	10.3308
9.985	9.65827	9.985	10.6005
9.99	10.2248	9.99	10.0339
9.995	9.88099	9.995	10.3776
10	-2.75726	10	-3.2828
10.005	-2.77317	10.005	-3.30186
10.01	-3.17631	10.01	-2.93369
10.015	-3.10105	10.015	-3.04391
10.02	-3.43581	10.02	-2.74412
10.025	-2.92232	10.025	-3.29257
10.03	-3.31027	10.03	-2.93958
10.035	-3.22362	10.035	-3.06119
10.04	-3.40142	10.04	-2.91835
10.045	-3.68457	10.045	-2.67016
10.05	-3.51932	10.05	-2.87037
10.055	-3.01269	10.055	-3.41196
10.06	-3.40579	10.06	-3.05382
10.065	-3.94848	10.065	-2.54608
10.07	-3.34954	10.07	-3.17998
10.075	-1.62106	10.075	-1.61263
10.08	-1.97983	10.08	-2.09247
10.085	-2.25314	10.085	-2.45682
10.09	-1.80939	10.09	-0.0567146
10.095	-2.12656	10.095	-0.917113
10.1	-2.36865	10.1	-1.56686
10.105	-1.51452	10.105	0.232272
10.11	-1.90575	10.11	-0.696971
10.115	-2.20337	10.115	-1.39833
10.12	-1.39087	10.12	0.36211
10.125	-1.8133	10.125	-0.596132
10.13	-0.707437	10.13	0.584715
10.135	0.373704	10.135	1.23906
10.14	-0.470479	10.14	0.0745674
10.145	-0.067845	10.145	1.48771
10.15	0.86778	10.15	1.93445
10.155	-0.085503	10.155	0.614293
10.16	3.56614	10.16	5.24152
10.165	1.97141	10.165	3.13172
10.17	2.19817	10.17	3.44904
10.175	2.62013	10.175	3.45587
10.18	2.3216	10.18	4.09676
10.185	1.06609	10.185	2.29905
10.19	3.21272	10.19	4.51589
10.195	3.42375	10.195	4.29656
10.2	3.59259	10.2	4.14241
10.205	6.82206	10.205	7.60651
10.21	6.19443	10.21	6.67182
10.215	8.82662	10.215	9.55058
10.22	8.13805	10.22	7.79002
10.225	6.62501	10.225	7.48748
10.23	9.842	10.23	9.5917
10.235	8.5819	10.235	8.26055
10.24	7.64765	10.24	7.27281
10.245	10.0501	10.245	10.112
10.25	7.13703	10.25	7.04348
10.255	7.00099	10.255	6.01675
10.26	9.62027	10.26	9.20862
10.265	6.86995	10.265	6.40471
10.27	6.46907	10.27	5.96346
10.275	13.6149	10.275	11.531
10.28	11.6181	10.28	9.87774
10.285	15.2762	10.285	13.4965
10.29	14.6032	10.29	13.0747
10.295	17.8419	10.295	15.7277
10.3	14.9477	10.3	13.1578
10.305	14.8408	10.305	12.52
10.31	15.8314	10.31	14.353
10.315	13.5254	10.315	12.1959
10.32	13.8597	10.32	11.8677
10.325	15.8069	10.325	13.3077
10.33	13.5952	10.33	11.4791
10.335	14.0003	10.335	11.3974
10.34	16.0007	10.34	13.0224
10.345	15.8813	10.345	12.6111
10.35	13.7707	10.35	11.0451
10.355	13.8649	10.355	11.5475
10.36	12.6833	10.36	9.89807
10.365	13.0925	10.365	10.7198
10.37	15.4779	10.37	12.6406
10.375	13.5953	10.375	11.173
10.38	14.2475	10.38	11.3625
10.385	14.3812	10.385	11.9126
10.39	13.2295	10.39	10.2992
10.395	11.9959	10.395	9.48272
10.4	16.4657	10.4	13.4914
10.405	14.4957	10.405	11.939
10.41	13.4172	10.41	10.3997
10.415	13.9039	10.415	11.3043
10.42	12.6303	10.42	10.3439
10.425	11.6872	10.425	9.63553
10.43	14.3229	10.43	12.4471
10.435	13.397	10.435	10.879
10.44	12.333	10.44	10.0969
10.445	13.8382	10.445	10.5623
10.45	12.7052	10.45	9.89591
10.455	11.8679	10.455	9.40824
10.46	12.9176	10.46	10.72
10.465	12.0664	10.465	10.0652
10.47	11.4404	10.47	9.5863
10.475	12.6488	10.475	10.9048
10.48	11.5296	10.48	10.6419
10.485	11.4716	10.485	9.6883
10.49	12.3372	10.49	11.4196
10.495	11.7299	10.495	10.6977
10.5	11.287	10.5	10.1686
10.505	12.2459	10.505	11.8365
10.51	11.9472	10.51	10.8286
10.515	13.1598	10.515	11.992
10.52	12.4311	10.52	11.226
10.525	9.84486	10.525	9.38567
10.53	14.173	10.53	15.057
10.535	13.2429	10.535	13.6067
10.54	13.8366	10.54	14.5839
10.545	12.6387	10.545	13.6836
10.55	12.1351	10.55	12.6392
10.555	12.9002	10.555	14.0694
10.56	12.3584	10.56	12.9815
10.565	11.5781	10.565	12.5652
10.57	13.5576	10.57	16.3756
10.575	11.8592	10.575	12.5079
10.58	10.6135	10.58	12.9065
10.585	12.2145	10.585	14.027
10.59	11.5309	10.59	13.4758
10.595	9.36078	10.595	11.415
10.6	10.6706	10.6	13.5906
10.605	10.3919	10.605	13.2076
10.61	9.80407	10.61	13.3253
10.615	10.7656	10.615	12.0373
10.62	8.82425	10.62	10.4291
10.625	10.3057	10.625	12.9443
10.63	8.49054	10.63	11.1506
10.635	8.7882	10.635	11.4744
10.64	9.01961	10.64	11.7353
10.645	9.5883	10.645	11.5622
10.65	7.97576	10.65	10.167
10.655	9.05093	10.655	10.1642
10.66	6.95138	10.66	9.76357
10.665	8.04605	10.665	10.122
10.67	9.11892	10.67	10.1654
10.675	7.64316	10.675	9.17403
10.68	8.58244	10.68	9.71267
10.685	8.91332	10.685	10.5168
10.69	7.50439	10.69	9.47268
10.695	8.10688	10.695	10.3588
10.7	7.28862	10.7	8.98928
10.705	8.33921	10.705	9.62624
10.71	7.08824	10.71	8.83873
10.715	6.53079	10.715	7.86494
10.72	7.77702	10.72	8.7987
10.725	6.67279	10.725	8.23381
10.73	6.22541	10.73	7.427
10.735	7.16727	10.735	8.87297
10.74	6.60359	10.74	7.92343
10.745	7.84518	10.745	8.87543
10.75	7.12445	10.75	7.93729
10.755	6.58289	10.755	7.23246
10.76	7.84108	10.76	8.36801
10.765	6.50734	10.765	8.19304
10.77	6.51626	10.77	7.05038
10.775	5.75312	10.775	6.96098
10.78	7.61397	10.78	7.78931
10.785	6.97586	10.785	7.14033
10.79	8.16169	10.79	8.3178
10.795	7.39919	10.795	7.54884
10.8	6.82635	10.8	6.97094
10.805	8.4481	10.805	7.81479
10.81	7.6307	10.81	7.1775
10.815	7.0167	10.815	6.69837
10.82	8.22065	10.82	8.00327
10.825	8.89865	10.825	9.23385
10.83	7.99675	10.83	8.26336
10.835	7.31942	10.835	7.53438
10.84	8.86284	10.84	8.26498
10.845	7.98676	10.845	7.54281
10.85	7.32881	10.85	7.00008
10.855	8.8868	10.855	7.87039
10.86	8.02165	10.86	7.25302
10.865	7.13339	10.865	7.02744
10.87	8.37312	10.87	8.28118
10.875	8.03811	10.875	7.18258
10.88	9.06953	10.88	8.40483
10.885	8.19137	10.885	7.6696
10.89	9.58425	10.89	8.39558
10.895	8.98229	10.895	7.28307
10.9	9.81353	10.9	8.49494
10.905	8.54673	10.905	7.99048
10.91	8.22419	10.91	6.98278
10.915	9.26501	10.915	8.27327
10.92	10.4463	10.92	8.86771
10.925	9.29875	10.925	8.04356
10.93	8.82427	10.93	7.03753
10.935	9.75118	10.935	8.32932
10.94	8.79473	10.94	7.64632
10.945	8.4636	10.945	6.74619
10.95	8.87255	10.95	8.74289
10.955	8.53788	10.955	7.57838
10.96	9.95662	10.96	8.36439
10.965	10.6526	10.965	9.34937
10.97	9.52303	10.97	8.43633
10.975	10.7275	10.975	9.02911
10.98	9.59743	10.98	8.20381
10.985	8.12373	10.985	8.20945
10.99	8.02801	10.99	7.2026
10.995	9.23908	10.995	8.49386
11	8.49584	11	7.81057
11.005	8.32471	11.005	6.91031
11.01	9.47925	11.01	8.28153
11.015	8.69363	11.015	7.65824
11.02	9.38224	11.02	9.24228
11.025	9.016	11.025	8.0098
11.03	8.35885	11.03	7.46651
11.035	9.53078	11.035	8.72363
11.04	8.13276	11.04	8.64027
11.045	7.70692	11.045	7.95369
11.05	9.4393	11.05	8.71642
11.055	8.70525	11.055	8.01868
11.06	8.15414	11.06	7.4946
11.065	9.79258	11.065	8.37923
11.07	10.6535	11.07	9.43833
11.075	9.64776	11.075	8.58103
11.08	8.89292	11.08	7.93732
11.085	8.32625	11.085	7.45382
11.09	8.94064	11.09	9.38134
11.095	8.37329	11.095	8.55211
11.1	7.94727	11.1	7.92948
11.105	7.24028	11.105	7.84875
11.11	8.75679	11.11	9.07102
11.115	8.62973	11.115	7.9492
11.12	8.15208	11.12	7.48901
11.125	9.07179	11.125	9.19552
11.13	8.87901	11.13	8.05503
11.135	8.35209	11.135	7.58086
11.14	9.62182	11.14	8.88996
11.145	8.29728	11.145	8.84572
11.15	7.92669	11.15	8.18862
11.155	7.64829	11.155	7.69515
11.16	9.10443	11.16	8.98979
11.165	8.5452	11.165	8.30925
11.17	8.12534	11.17	7.79822
11.175	9.08845	11.175	9.46665
11.18	8.54134	11.18	8.68461
11.185	8.13058	11.185	8.09747
11.19	9.48749	11.19	9.3219
11.195	8.2284	11.195	9.21422
11.2	7.90695	11.2	8.5096
11.205	9.33086	11.205	9.64594
11.21	8.74751	11.21	8.84673
11.215	8.30962	11.215	8.24675
11.22	7.98081	11.22	7.79619
11.225	9.39922	11.225	9.1231
11.23	8.81178	11.23	8.46684
11.235	8.37083	11.235	7.97409
11.24	9.70515	11.24	9.26937
11.245	9.05465	11.245	8.58941
11.25	7.94095	11.25	8.70438
11.255	7.34165	11.255	8.55376
11.26	8.9391	11.26	9.72379
11.265	8.48596	11.265	8.9499
11.27	8.14579	11.27	8.36898
11.275	9.16878	11.275	9.98511
11.28	8.66668	11.28	9.16396
11.285	8.67675	11.285	8.16066
11.29	9.58058	11.29	9.8419
11.295	8.98914	11.295	9.0696
11.3	8.93221	11.3	8.10295
11.305	7.49494	11.305	8.77178
11.31	7.42183	11.31	8.26779
11.315	7.36671	11.315	7.88933
11.32	8.99048	11.32	9.2704
11.325	8.55714	11.325	8.65486
11.33	8.23187	11.33	8.19275
11.335	7.98764	11.335	7.84572
11.34	7.8042	11.34	7.58498
11.345	9.33175	11.345	9.05438
11.35	8.43932	11.35	8.89204
11.355	8.15161	11.355	8.38799
11.36	9.60098	11.36	9.67491
11.365	9.03688	11.365	8.98879
11.37	8.61357	11.37	8.47379
11.375	7.67038	11.375	8.7126
11.38	7.58602	11.38	8.26802
11.385	7.52252	11.385	7.93418
11.39	9.52701	11.39	8.96182
11.395	8.9974	11.395	8.46314
11.4	8.21303	11.4	8.47567
11.405	8.00641	11.405	8.10281
11.41	9.51663	11.41	9.48817
11.415	8.9982	11.415	8.87592
11.42	7.98371	11.42	9.04183
11.425	7.84592	11.425	8.54262
11.43	9.40777	11.43	9.83323
11.435	8.9281	11.435	9.14994
11.44	8.56816	11.44	8.63712
11.445	8.29804	11.445	8.25214
11.45	8.09526	11.45	7.96306
11.455	7.94301	11.455	7.74588
11.46	7.82864	11.46	7.58265
11.465	9.79504	11.465	8.73832
11.47	9.23691	11.47	8.3357
11.475	8.19269	11.475	8.65888
11.48	8.03263	11.48	8.27766
11.485	7.91243	11.485	7.99141
11.49	7.82212	11.49	7.77638
11.495	7.36728	11.495	8.00172
11.5	7.40786	11.5	7.78853
11.505	7.43814	11.505	7.62829
11.51	9.12609	11.51	9.17318
11.515	8.74102	11.515	8.68063
11.52	8.45207	11.52	8.31091
11.525	8.62217	11.525	7.64635
11.53	7.74227	11.53	8.15496
11.535	7.70547	11.535	7.91283
11.54	7.67773	11.54	7.73091
11.545	7.65678	11.545	7.59416
11.55	9.69328	11.55	8.76973
11.555	9.18777	11.555	8.38208
11.56	8.80852	11.56	8.09105
11.565	8.52396	11.565	7.87248
11.57	8.31042	11.57	7.70825
11.575	8.15015	11.575	7.58479
11.58	7.64287	11.58	7.87884
11.585	7.01868	11.585	8.34269
11.59	7.17369	11.59	8.06702
11.595	7.28982	11.595	7.85996
11.6	7.76375	11.6	7.31743
11.605	7.73721	11.605	7.2921
11.61	9.38258	11.61	8.9382
11.615	8.96561	11.615	8.52161
11.62	8.65278	11.62	8.20889
11.625	7.79257	11.625	8.59955
11.63	7.77059	11.63	8.269
11.635	8.14094	11.635	7.63386
11.64	8.03674	11.64	7.5391
11.645	7.95849	11.645	7.46775
11.65	9.17814	11.65	9.46631
11.655	8.82377	11.655	8.93221
11.66	8.55791	11.66	8.53138
11.665	8.35843	11.665	8.2305
11.67	7.9702	11.67	8.24312
11.675	7.5334	11.675	8.39787
11.68	7.97453	11.68	7.74486
11.685	7.92343	11.685	7.63671
11.69	7.88502	11.69	7.55535
11.695	7.85612	11.695	7.49407
11.7	7.83437	11.7	7.44785
11.705	8.20491	11.705	7.02599
11.71	7.47539	11.71	7.71668
11.715	7.55144	11.715	7.61117
11.72	7.60838	11.72	7.53179
11.725	7.65101	11.725	7.47199
11.73	7.29594	11.73	7.81384
11.735	7.41142	11.735	7.6881
11.74	7.49795	11.74	7.59355
11.745	7.9497	11.745	7.13543
11.75	9.18502	11.75	9.22579
11.755	9.22935	11.755	8.37362
11.76	8.2552	11.76	8.74161
11.765	8.14778	11.765	8.39409
11.77	8.06715	11.77	8.13322
11.775	8.00661	11.775	7.93733
11.78	8.34809	11.78	7.40323
11.785	8.22226	11.785	7.38429
11.79	8.12782	11.79	7.36984
11.795	7.43144	11.795	7.98426
11.8	8.15784	11.8	7.19608
11.805	7.45382	11.805	7.85347
11.81	7.54901	11.81	7.723
11.815	7.62033	11.815	7.62492
11.82	7.67376	11.82	7.55112
11.825	7.71376	11.825	7.49554
11.83	7.74369	11.83	7.45362
11.835	7.76607	11.835	7.42195
11.84	8.16973	11.84	7.01101
11.845	7.70359	11.845	7.47139
11.85	8.12274	11.85	7.04763
11.855	7.42968	11.855	7.73692
11.86	7.53309	11.86	7.63038
11.865	7.61057	11.865	7.55024
11.87	7.66862	11.87	7.48991
11.875	7.71208	11.875	7.44442
11.88	7.74461	11.88	7.41008
11.885	7.76894	11.885	7.38408
11.89	7.78712	11.89	7.36436
11.895	7.56214	11.895	7.58786
11.9	7.2478	11.9	7.9008
11.905	7.39384	11.905	7.75341
11.91	7.5033	11.91	7.64263
11.915	7.58533	11.915	7.55931
11.92	8.03372	11.92	7.10965
11.925	7.98808	11.925	7.15403
11.93	7.3283	11.93	7.81257
11.935	9.50901	11.935	8.96142
11.94	9.11173	11.94	8.55382
11.945	8.81371	11.945	8.24791
11.95	8.59015	11.95	8.01826
11.955	8.42243	11.955	7.84581
11.96	8.29658	11.96	7.71627
11.965	7.57666	11.965	8.24438
11.97	7.65995	11.97	8.01697
11.975	7.72235	11.975	7.84621
11.98	7.76911	11.98	7.71793
11.985	7.80412	11.985	7.62151
11.99	7.83032	11.99	7.54898
11.995	7.84992	11.995	7.49437
12	7.86457	12	7.45321
12.005	7.8755	12.005	7.42212
12.01	7.88364	12.01	7.3986
12.015	7.8897	12.015	7.38075
12.02	7.89419	12.02	7.36714
12.025	7.65897	12.025	7.59527
12.03	7.7239	12.03	7.52474
12.035	7.77255	12.035	7.47164
12.04	7.80898	12.04	7.4316
12.045	7.83625	12.045	7.40136
12.05	7.85665	12.05	7.37847
12.055	7.87189	12.055	7.3611
12.06	7.88327	12.06	7.34786
12.065	7.89175	12.065	7.33772
12.07	7.89806	12.07	7.3299
12.075	7.27725	12.075	7.94931
12.08	7.43486	12.08	7.79039
12.085	7.55302	12.085	7.67098
12.09	7.64158	12.09	7.58122
12.095	7.70794	12.095	7.51369
12.1	7.75766	12.1	7.46284
12.105	7.79489	12.105	7.42449
12.11	8.20971	12.11	7.00857
12.115	8.1389	12.115	7.07829
12.12	8.08574	12.12	7.13037
12.125	7.42033	12.125	7.7947
12.13	7.54449	12.13	7.66947
12.135	7.63756	12.135	7.57533
12.14	7.7073	12.14	7.50453
12.145	7.75955	12.145	7.45122
12.15	7.79868	12.15	7.41102
12.155	7.82797	12.155	7.38067
12.16	7.84988	12.16	7.3577
12.165	7.86626	12.165	7.34026
12.17	7.87849	12.17	7.32698
12.175	7.26212	12.175	7.94228
12.18	7.42306	12.18	7.78029
12.185	7.54371	12.185	7.65858
12.19	7.63414	12.19	7.5671
12.195	7.7019	12.195	7.49827
12.2	7.75267	12.2	7.44645
12.205	7.79069	12.205	7.40738
12.21	7.81914	12.21	7.37787
12.215	7.84043	12.215	7.35552
12.22	7.85633	12.22	7.33856
12.225	7.8682	12.225	7.32563
12.23	9.54245	12.23	8.98113
12.235	8.90867	12.235	8.8102
12.24	8.6747	12.24	8.44041
12.245	8.49918	12.245	8.16288
12.25	8.36751	12.25	7.95455
12.255	8.26871	12.255	7.79811
12.26	8.19457	12.26	7.6806
12.265	8.13893	12.265	7.59227
12.27	8.09716	12.27	7.52585
12.275	8.0658	12.275	7.47584
12.28	7.65528	12.28	7.82509
12.285	8.11617	12.285	7.31803
12.29	8.07994	12.29	7.31942
12.295	8.05272	12.295	7.32027
12.3	7.40679	12.3	7.9462
12.305	7.54557	12.305	7.79219
12.31	7.64962	12.31	7.6765
12.315	7.72761	12.315	7.58955
12.32	7.78607	12.32	7.52414
12.325	7.82987	12.325	7.47491
12.33	7.86269	12.33	7.43779
12.335	7.88725	12.335	7.40977
12.34	7.90564	12.34	7.38857
12.345	7.91939	12.345	7.37248
12.35	7.92966	12.35	7.36023
12.355	7.93733	12.355	7.35086
12.36	7.94304	12.36	7.34364
12.365	7.94728	12.365	7.33804
12.37	7.95042	12.37	7.33366
12.375	7.32725	12.375	7.95567
12.38	7.48311	12.38	7.79871
12.385	7.59996	12.385	7.68081
12.39	7.68756	12.39	7.59221
12.395	7.75322	12.395	7.52556
12.4	7.80242	12.4	7.4754
12.405	7.83928	12.405	7.43759
12.41	7.86689	12.41	7.40905
12.415	7.88755	12.415	7.38745
12.42	7.903	12.42	7.37108
12.425	7.91455	12.425	7.35861
12.43	7.92318	12.43	7.34907
12.435	7.9296	12.435	7.34173
12.44	7.93438	12.44	7.33605
12.445	7.31244	12.445	7.95708
12.45	7.46922	12.45	7.79939
12.455	7.58676	12.455	7.68095
12.46	7.67487	12.46	7.59193
12.465	7.74092	12.465	7.52498
12.47	7.79041	12.47	7.47458
12.475	7.82748	12.475	7.4366
12.48	7.85525	12.48	7.40794
12.485	7.87603	12.485	7.38625
12.49	7.89157	12.49	7.3698
12.495	7.90319	12.495	7.35728
12.5	7.91186	12.5	7.34771
12.505	7.53137	12.505	7.72729
12.51	8.01478	12.51	7.24298
12.515	7.60848	12.515	7.64838
12.52	7.0601	12.52	8.19586
12.525	7.65899	12.525	7.59606
12.53	7.3393	12.53	7.91485
12.535	7.48136	12.535	7.77189
12.54	7.9748	12.54	7.27754
12.545	7.96298	12.545	7.28846
12.55	7.56712	12.55	7.68341
12.555	7.65205	12.555	7.59758
12.56	7.71571	12.56	7.53302
12.565	7.7634	12.565	7.48442
12.57	7.79913	12.57	7.44779
12.575	7.82589	12.575	7.42013
12.58	7.84591	12.58	7.3992
12.585	9.52628	12.585	9.04872
12.59	8.51017	12.59	9.26028
12.595	8.37132	12.595	8.79552
12.6	8.26717	12.6	8.44679
12.605	8.18903	12.605	8.18507
12.61	8.1304	12.61	7.98862
12.615	8.0864	12.615	7.84113
12.62	8.05337	12.62	7.73034
12.625	8.02858	12.625	7.64708
12.63	8.00996	12.63	7.58448
12.635	7.99598	12.635	7.53737
12.64	7.98546	12.64	7.50187
12.645	7.97755	12.645	7.47508
12.65	7.97159	12.65	7.45483
12.655	7.96709	12.655	7.43948
12.66	7.9637	12.66	7.4278
12.665	7.96113	12.665	7.41888
12.67	7.95918	12.67	7.41203
12.675	7.95769	12.675	7.40672
12.68	7.33106	12.68	8.02806
12.685	7.48434	12.685	7.87064
12.69	7.59928	12.69	7.7524
12.695	7.68545	12.695	7.66356
12.7	7.75006	12.7	7.59678
12.705	7.79849	12.705	7.54652
12.71	7.83478	12.71	7.50867
12.715	7.86198	12.715	7.48012
12.72	7.88235	12.72	7.45854
12.725	7.8976	12.725	7.4422
12.73	7.90902	12.73	7.42978
12.735	7.91755	12.735	7.4203
12.74	7.92393	12.74	7.41304
12.745	7.92868	12.745	7.40742
12.75	7.93223	12.75	7.40305
12.755	7.93486	12.755	7.39961
12.76	7.9368	12.76	7.39687
12.765	7.93824	12.765	7.39465
12.77	7.31381	12.77	8.0183
12.775	7.46873	12.775	7.86261
12.78	7.5849	12.78	7.74568
12.785	7.67199	12.785	7.65782
12.79	7.73729	12.79	7.59177
12.795	7.78624	12.795	7.54207
12.8	7.82292	12.8	7.50463
12.805	7.85041	12.805	7.47639
12.81	7.87099	12.81	7.45505
12.815	7.88641	12.815	7.43888
12.82	7.89794	12.82	7.4266
12.825	7.90656	12.825	7.41722
12.83	7.91301	12.83	7.41003
12.835	7.91781	12.835	7.40448
12.84	7.92139	12.84	7.40015
12.845	7.92404	12.845	7.39674
12.85	7.92601	12.85	7.39403
12.855	7.92745	12.855	7.39183
12.86	7.92851	12.86	7.39002
12.865	7.92928	12.865	7.3885
12.87	7.30435	12.87	8.01269
12.875	8.08438	12.875	7.23191
12.88	8.0461	12.88	7.26944
12.885	7.39188	12.885	7.92291
12.89	7.52446	12.89	7.78957
12.895	7.62387	12.895	7.68941
12.9	7.6984	12.9	7.61413
12.905	7.75427	12.905	7.55751
12.91	7.79615	12.91	7.51489
12.915	7.82752	12.915	7.48276
12.92	7.85103	12.92	7.45851
12.925	7.86863	12.925	7.44015
12.93	7.88181	12.93	7.42623
12.935	7.89166	12.935	7.41563
12.94	7.51207	12.94	7.79446
12.945	7.99617	12.945	7.30962
12.95	7.97735	12.95	7.32769
12.955	7.57626	12.955	7.72803
12.96	7.65728	12.96	7.64626
12.965	7.71802	12.965	7.58477
12.97	7.76354	12.97	7.53849
12.975	7.79766	12.975	7.50363
12.98	7.58469	12.98	7.71585
12.985	8.29181	12.985	7.00797
12.99	7.57338	12.99	7.72566
12.995	7.6578	12.995	7.64049
13	7.72108	13	7.57645
13.005	7.76852	13.005	7.52827
13.01	7.80407	13.01	7.49197
13.015	7.8307	13.015	7.46459
13.02	7.85065	13.02	7.44389
13.025	7.86558	13.025	7.42821
13.03	7.87675	13.03	7.41629
13.035	7.88509	13.035	7.40719
13.04	7.89133	13.04	7.40021
13.045	7.89597	13.045	7.39481
13.05	7.51248	13.05	7.77755
13.055	7.6067	13.055	7.68259
13.06	7.67734	13.06	7.6112
13.065	7.73029	13.065	7.5575
13.07	7.76997	13.07	7.51707
13.075	7.7997	13.075	7.48659
13.08	7.82197	13.08	7.46356
13.085	7.83865	13.085	7.44614
13.09	7.85113	13.09	7.43291
13.095	7.86046	13.095	7.42283
13.1	7.86742	13.1	7.41511
13.105	7.87262	13.105	7.40917
13.11	7.25101	13.11	8.03003
13.115	7.40805	13.115	7.87224
13.12	7.52579	13.12	7.75374
13.125	7.61407	13.125	7.66471
13.13	7.68026	13.13	7.59778
13.135	7.72986	13.135	7.54743
13.14	7.76704	13.14	7.5095
13.145	7.79489	13.145	7.4809
13.15	7.81575	13.15	7.45929
13.155	7.83136	13.155	7.44293
13.16	7.84304	13.16	7.43049
13.165	7.85178	13.165	7.42101
13.17	7.8583	13.17	7.41374
13.175	7.86316	13.175	7.40813
13.18	7.86677	13.18	7.40377
13.185	7.86945	13.185	7.40034
13.19	7.87144	13.19	7.3976
13.195	7.87289	13.195	7.3954
13.2	7.87396	13.2	7.39358
13.205	7.87472	13.205	7.39207
13.21	7.87527	13.21	7.39077
13.215	7.87565	13.215	7.38964
13.22	7.87591	13.22	7.38863
13.225	7.87607	13.225	7.38772
13.23	7.87616	13.23	7.38688
13.235	7.8762	13.235	7.38609
13.24	7.8762	13.24	7.38534
13.245	7.87617	13.245	7.38462
13.25	7.25064	13.25	8.0094
13.255	8.03021	13.255	7.22908
13.26	7.36611	13.26	7.89243
13.265	7.49128	13.265	7.76651
13.27	7.58512	13.27	7.67192
13.275	7.65547	13.275	7.60082
13.28	7.70821	13.28	7.54733
13.285	7.74772	13.285	7.50706
13.29	7.77733	13.29	7.47671
13.295	7.79951	13.295	7.45378
13.3	7.81611	13.3	7.43643
13.305	7.82853	13.305	7.42326
13.31	7.83782	13.31	7.41322
13.315	7.84475	13.315	7.40554
13.32	7.84992	13.32	7.39962
13.325	7.85377	13.325	7.39502
13.33	7.85662	13.33	7.39142
13.335	7.85873	13.335	7.38856
13.34	7.86029	13.34	7.38625
13.345	7.86142	13.345	7.38437
13.35	7.86224	13.35	7.3828
13.355	7.86282	13.355	7.38147
13.36	7.86323	13.36	7.38031
13.365	7.86351	13.365	7.37928
13.37	7.86368	13.37	7.37836
13.375	7.86379	13.375	7.3775
13.38	7.86383	13.38	7.37671
13.385	7.86384	13.385	7.37596
13.39	7.86381	13.39	7.37523
13.395	7.86376	13.395	7.37453
13.4	7.86369	13.4	7.37385
13.405	7.86361	13.405	7.37319
13.41	7.86351	13.41	7.37253
13.415	7.86341	13.415	7.37188
13.42	7.86331	13.42	7.37123
13.425	7.8632	13.425	7.37059
13.43	7.86309	13.43	7.36995
13.435	7.23749	13.435	7.9948
13.44	7.00459	13.44	8.22695
13.445	7.21175	13.445	8.01904
13.45	7.36708	13.45	7.86296
13.455	7.48356	13.455	7.74574
13.46	7.57088	13.46	7.65766
13.465	7.63634	13.465	7.59145
13.47	7.6854	13.47	7.54164
13.475	7.72217	13.475	7.50412
13.48	7.74971	13.48	7.47583
13.485	7.77034	13.485	7.45446
13.49	7.78577	13.49	7.43827
13.495	7.79732	13.495	7.42597
13.5	7.80595	13.5	7.41659
13.505	7.81239	13.505	7.4094
13.51	9.48259	13.51	9.06925
13.515	9.08433	13.515	8.66311
13.52	8.78562	13.52	8.35836
13.525	8.56158	13.525	8.12967
13.53	8.39354	13.53	7.95801
13.535	8.65444	13.535	7.44218
13.54	8.08129	13.54	7.82398
13.545	8.03328	13.545	7.72834
13.55	8.38421	13.55	7.26952
13.555	8.26553	13.555	7.30713
13.56	7.78956	13.56	7.72215
13.565	8.20138	13.565	7.26446
13.57	7.74142	13.57	7.68988
13.575	8.16526	13.575	7.23999
13.58	7.7143	13.58	7.67124
13.585	7.75795	13.585	7.61269
13.59	7.79066	13.59	7.56863
13.595	7.81519	13.595	7.53545
13.6	7.83357	13.6	7.51043
13.605	7.84735	13.605	7.49153
13.61	7.85766	13.61	7.47721
13.615	7.86539	13.615	7.46634
13.62	8.25812	13.62	7.0711
13.625	7.78384	13.625	7.54335
13.63	7.80999	13.63	7.51553
13.635	8.21653	13.635	7.10759
13.64	8.13956	13.64	7.18335
13.645	8.08182	13.645	7.24004
13.65	8.03851	13.65	7.28242
13.655	8.00601	13.655	7.31407
13.66	7.98162	13.66	7.33767
13.665	7.57637	13.665	7.74218
13.67	7.65428	13.67	7.66356
13.675	7.71271	13.675	7.60446
13.68	7.75652	13.68	7.56
13.685	7.78936	13.685	7.52651
13.69	7.81398	13.69	7.50126
13.695	7.83243	13.695	7.48219
13.7	7.84626	13.7	7.46774
13.705	7.85662	13.705	7.45677
13.71	7.86437	13.71	7.44841
13.715	7.87018	13.715	7.442
13.72	7.87452	13.72	7.43706
13.725	7.87776	13.725	7.43321
13.73	7.2547	13.73	8.05567
13.735	8.03615	13.735	7.27363
13.74	7.37347	13.74	7.93571
13.745	7.49971	13.745	7.80887
13.75	8.21987	13.75	7.08811
13.755	8.1367	13.755	7.17069
13.76	7.44883	13.76	7.85796
13.765	7.55618	13.765	7.75001
13.77	8.26217	13.77	7.04342
13.775	7.54289	13.775	7.7621
13.78	7.62669	13.78	7.67771
13.785	7.92807	13.785	7.37574
13.79	7.91268	13.79	7.39053
13.795	7.27564	13.795	8.02697
13.8	7.42112	13.8	7.88089
13.805	7.53022	13.805	7.77119
13.81	7.61203	13.81	7.68879
13.815	7.67338	13.815	7.62685
13.82	7.71937	13.82	7.58025
13.825	7.75386	13.825	7.54517
13.83	7.77971	13.83	7.51873
13.835	7.79908	13.835	7.49876
13.84	7.8136	13.84	7.48364
13.845	7.82447	13.845	7.47217
13.85	7.83261	13.85	7.46343
13.855	7.83871	13.855	7.45674
13.86	7.84327	13.86	7.45159
13.865	7.84667	13.865	7.44759
13.87	7.84921	13.87	7.44445
13.875	7.8511	13.875	7.44196
13.88	7.85251	13.88	7.43996
13.885	7.85355	13.885	7.43832
13.89	7.85432	13.89	7.43696
13.895	7.85488	13.895	7.4358
13.9	7.85529	13.9	7.43479
13.905	7.85558	13.905	7.4339
13.91	7.85579	13.91	7.4331
13.915	7.85593	13.915	7.43236
13.92	7.85602	13.92	7.43167
13.925	7.85608	13.925	7.43102
13.93	7.85611	13.93	7.43039
13.935	7.85612	13.935	7.42979
13.94	7.85611	13.94	7.4292
13.945	7.85609	13.945	7.42862
13.95	7.85607	13.95	7.42805
13.955	7.85603	13.955	7.42749
13.96	7.85599	13.96	7.42693
13.965	7.85595	13.965	7.42637
13.97	7.85591	13.97	7.42582
13.975	7.85586	13.975	7.42527
13.98	7.46887	13.98	7.81167
13.985	7.56047	13.985	7.71947
13.99	7.62916	13.99	7.65018
13.995	7.68067	13.995	7.59808
14	7.71928	14	7.55887
14.005	7.74823	14.005	7.52932
14.01	7.76993	14.01	7.50703
14.015	7.78619	14.015	7.49017
14.02	7.79837	14.02	7.47739
14.025	7.8075	14.025	7.46767
14.03	7.81433	14.03	7.46024
14.035	9.48483	14.035	9.11994
14.04	9.08682	14.04	8.71369
14.045	8.78832	14.045	8.4089
14.05	8.56446	14.05	8.18018
14.055	8.39656	14.055	8.00853
14.06	8.27064	14.06	7.87967
14.065	8.17621	14.065	7.78291
14.07	8.1054	14.07	7.71023
14.075	8.05229	14.075	7.6556
14.08	8.01246	14.08	7.61451
14.085	7.9826	14.085	7.58357
14.09	7.96021	14.09	7.56025
14.095	7.94342	14.095	7.54265
14.1	7.93084	14.1	7.52933
14.105	7.92141	14.105	7.51922
14.11	7.91434	14.11	7.51152
14.115	7.90904	14.115	7.50563
14.12	7.90508	14.12	7.5011
14.125	7.90211	14.125	7.49758
14.13	7.51294	14.13	7.88178
14.135	7.60294	14.135	7.78794
14.14	8.05739	14.14	7.3305
14.145	8.01637	14.145	7.36916
14.15	7.98561	14.15	7.39805
14.155	7.96254	14.155	7.41959
14.16	7.5583	14.16	7.82258
14.165	7.637	14.165	7.74284
14.17	7.69602	14.17	7.68292
14.175	7.7403	14.175	7.63786
14.18	7.77351	14.18	7.60395
14.185	7.79842	14.185	7.5784
14.19	7.81712	14.19	7.55912
14.195	7.83114	14.195	7.54455
14.2	7.84167	14.2	7.5335
14.205	7.84956	14.205	7.52509
14.21	7.8555	14.21	7.51868
14.215	7.85995	14.215	7.51374
14.22	7.8633	14.22	7.50993
14.225	7.47886	14.225	7.8939
14.23	7.57241	14.23	7.79989
14.235	8.02953	14.235	7.34232
14.24	7.9905	14.24	7.3809
14.245	7.96124	14.245	7.40971
14.25	7.9393	14.25	7.4312
14.255	7.92285	14.255	7.44721
14.26	7.52357	14.26	7.84604
14.265	7.60599	14.265	7.76318
14.27	7.6678	14.27	7.70092
14.275	7.71417	14.275	7.65411
14.28	7.74895	14.28	7.61888
14.285	7.77504	14.285	7.59235
14.29	7.79462	14.29	7.57233
14.295	7.80931	14.295	7.5572
14.3	7.82033	14.3	7.54573
14.305	7.8286	14.305	7.53702
14.31	7.83481	14.31	7.53036
14.315	7.83947	14.315	7.52526
14.32	7.84298	14.32	7.52131
14.325	7.84561	14.325	7.51823
14.33	7.84759	14.33	7.51581
14.335	7.84908	14.335	7.51387
14.34	7.85021	14.34	7.5123
14.345	7.85106	14.345	7.51101
14.35	7.8517	14.35	7.50993
14.355	7.85219	14.355	7.50899
14.36	7.46561	14.36	7.89513
14.365	7.55756	14.365	7.80274
14.37	7.62652	14.37	7.73334
14.375	7.67824	14.375	7.68117
14.38	7.71704	14.38	7.64192
14.385	7.74615	14.385	7.61237
14.39	7.76799	14.39	7.59009
14.395	7.78437	14.395	7.57327
14.4	7.79666	14.4	7.56053
14.405	7.80589	14.405	7.55086
14.41	7.81282	14.41	7.54349
14.415	7.81802	14.415	7.53785
14.42	7.82192	14.42	7.5335
14.425	7.82486	14.425	7.53012
14.43	7.82706	14.43	7.52747
14.435	8.45421	14.435	6.89989
14.44	7.67582	14.44	7.67783
14.445	7.7153	14.445	7.6379
14.45	7.74492	14.45	7.60784
14.455	7.3802	14.455	7.97212
14.46	7.87547	14.46	7.4764
14.465	7.47812	14.465	7.87331
14.47	7.56198	14.47	7.78901
14.475	7.62488	14.475	7.72567
14.48	7.67206	14.48	7.67804
14.485	7.70745	14.485	7.64221
14.49	7.734	14.49	7.61522
14.495	7.75392	14.495	7.59485
14.5	7.76887	14.5	7.57947
14.505	7.78008	14.505	7.56781
14.51	7.7885	14.51	7.55895
14.515	7.79482	14.515	7.55219
14.52	7.79956	14.52	7.547
14.525	9.46852	14.525	9.20839
14.53	9.06937	14.53	8.80344
14.535	8.77004	14.535	8.49963
14.54	8.54556	14.54	8.27168
14.545	8.37723	14.545	8.10061
14.55	8.25101	14.55	7.97222
14.555	8.15637	14.555	7.87582
14.56	8.08541	14.56	7.80343
14.565	8.03222	14.565	7.74904
14.57	7.99235	14.57	7.70815
14.575	7.96247	14.575	7.67738
14.58	7.94009	14.58	7.65421
14.585	7.92333	14.585	7.63673
14.59	7.91078	14.59	7.62352
14.595	7.9014	14.595	7.61352
14.6	7.50744	14.6	7.99287
14.605	7.59386	14.605	7.89542
14.61	7.6587	14.61	7.82223
14.615	7.70735	14.615	7.76725
14.62	7.74387	14.62	7.72591
14.625	7.77128	14.625	7.69481
14.63	8.17881	14.63	7.28444
14.635	8.10262	14.635	7.35843
14.64	8.0455	14.64	7.41382
14.645	8.00269	14.645	7.45527
14.65	7.9706	14.65	7.48626
14.655	7.94656	14.655	7.5094
14.66	7.92856	14.66	7.52666
14.665	7.91508	14.665	7.53951
14.67	7.905	14.67	7.54905
14.675	7.89746	14.675	7.55611
14.68	7.89183	14.68	7.5613
14.685	7.88764	14.685	7.5651
14.69	7.49757	14.69	7.9548
14.695	7.58691	14.695	7.86511
14.7	7.65394	14.7	7.79774
14.705	7.70424	14.705	7.74712
14.71	7.74198	14.71	7.70906
14.715	7.77032	14.715	7.68041
14.72	7.7916	14.72	7.65883
14.725	7.80758	14.725	7.64255
14.73	7.81959	14.73	7.63024
14.735	7.82863	14.735	7.62091
14.74	7.83543	14.74	7.61381
14.745	7.84056	14.745	7.60839
14.75	7.84443	14.75	7.60423
14.755	7.84735	14.755	7.60101
14.76	7.84957	14.76	7.5985
14.765	7.85126	14.765	7.59652
14.77	7.85256	14.77	7.59493
14.775	7.85355	14.775	7.59365
14.78	7.85432	14.78	7.59259
14.785	7.85493	14.785	7.59169
14.79	7.8554	14.79	7.59093
14.795	7.85579	14.795	7.59025
14.8	7.8561	14.8	7.58965
14.805	7.85636	14.805	7.5891
14.81	7.85658	14.81	7.58859
14.815	7.85677	14.815	7.58811
14.82	7.85694	14.82	7.58765
14.825	7.85709	14.825	7.58721
14.83	8.24417	14.83	7.19984
14.835	8.15265	14.835	7.29107
14.84	8.08403	14.84	7.3594
14.845	8.03259	14.845	7.41055
14.85	7.99403	14.85	7.44882
14.855	7.96514	14.855	7.47742
14.86	7.55655	14.86	7.88572
14.865	7.632	14.865	7.80998
14.87	7.68861	14.87	7.75308
14.875	8.11804	14.875	7.32336
14.88	7.67133	14.88	7.76978
14.885	7.71818	14.885	7.72264
14.89	8.1403	14.89	7.30024
14.895	8.07504	14.895	7.3652
14.9	8.02613	14.9	7.41383
14.905	7.98946	14.905	7.4502
14.91	7.96199	14.91	7.47738
14.915	7.94141	14.915	7.49767
14.92	7.926	14.92	7.51279
14.925	7.91447	14.925	7.52403
14.93	7.90585	14.93	7.53237
14.935	7.89941	14.935	7.53852
14.94	7.8946	14.94	7.54304
14.945	7.89102	14.945	7.54633
14.95	7.88836	14.95	7.5487
14.955	7.88639	14.955	7.55038
14.96	7.88494	14.96	7.55154
14.965	7.25839	14.965	8.17779
14.97	8.03726	14.97	7.39863
14.975	7.37269	14.975	8.06292
14.98	7.49755	14.98	7.93777
14.985	7.59122	14.985	7.8438
14.99	7.6615	14.99	7.77324
14.995	7.71424	14.995	7.72021
15	20.9031	15	20.8297
15.005	21.3372	15.005	20.4302
15.01	21.2853	15.01	20.5167
15.015	21.2508	15.015	20.5858
15.02	21.2293	15.02	20.642
15.025	21.2175	15.025	20.6883
15.03	21.2131	15.03	20.7274
15.035	21.2142	15.035	20.7609
15.04	21.2194	15.04	20.7904
15.045	21.2276	15.045	20.8167
15.05	21.8637	15.05	20.2152
15.055	21.7219	15.055	20.3917
15.06	20.9944	15.06	21.1538
15.065	21.702	15.065	20.4808
15.07	21.6137	15.07	20.6037
15.075	21.552	15.075	20.7001
15.08	21.51	15.08	20.7766
15.085	21.4829	15.085	20.8383
15.09	21.467	15.09	20.8889
15.095	19.7941	15.095	19.2656
15.1	20.5816	15.1	19.3164
15.105	20.7947	15.105	19.7406
15.11	20.9589	15.11	20.063
15.115	21.0865	15.115	20.309
15.12	21.1865	15.12	20.4978
15.125	19.6005	15.125	18.9782
15.13	20.0662	15.13	19.4937
15.135	20.4199	15.135	19.8845
15.14	20.6894	15.14	20.1818
15.145	21.5215	15.145	19.7835
15.15	19.8612	15.15	18.447
15.155	20.2712	15.155	19.0996
15.16	20.583	15.16	19.5933
15.165	19.5427	15.165	17.9155
15.17	20.0359	15.17	18.694
15.175	20.4101	15.175	19.2821
15.18	19.0296	15.18	18.062
15.185	18.371	15.185	16.7496
15.19	19.1504	15.19	17.8022
15.195	18.6993	15.195	16.305
15.2	17.7274	15.2	15.7949
15.205	18.6536	15.205	17.0674
15.21	18.0741	15.21	15.9735
15.215	17.2473	15.215	15.5245
15.22	18.6692	15.22	16.4558
15.225	16.6527	15.225	13.584
15.23	15.919	15.23	13.9323
15.235	13.9069	15.235	8.97296
15.24	13.4354	15.24	10.7986
15.245	11.3761	15.245	7.19073
15.25	12.5048	15.25	8.3942
15.255	12.572	15.255	10.055
15.26	12.3408	15.26	8.23019
15.265	14.2294	15.265	11.4109
15.27	14.4643	15.27	11.6548
15.275	11.2061	15.275	8.58929
15.28	12.5387	15.28	9.09612
15.285	12.6656	15.285	10.3272
15.29	11.9516	15.29	8.70749
15.295	12.8199	15.295	9.36903
15.3	12.6916	15.3	10.6231
15.305	8.98273	15.305	5.16232
15.31	9.51229	15.31	7.63904
15.315	4.48576	15.315	1.57525
15.32	6.68521	15.32	4.24317
15.325	8.32383	15.325	6.233
15.33	6.21101	15.33	4.38345
15.335	7.91713	15.335	6.28689
15.34	9.18565	15.34	7.70327
15.345	6.79516	15.345	5.42354
15.35	8.67988	15.35	6.6173
15.355	9.70039	15.355	7.88319
15.36	8.7892	15.36	7.15589
15.365	8.08007	15.365	6.58456
15.37	8.56238	15.37	8.42104
15.375	7.87071	15.375	7.49831
15.38	9.61701	15.38	7.82023
15.385	8.62673	15.385	7.00808
15.39	7.4712	15.39	6.7599
15.395	8.62589	15.395	7.83124
15.4	9.48048	15.4	8.62318
15.405	6.77917	15.405	5.87475
15.41	8.04347	15.41	7.10358
15.415	5.26243	15.415	5.06969
15.42	6.84871	15.42	6.45247
15.425	8.02681	15.425	7.47782
15.43	3.2771	15.43	3.86436
15.435	5.27906	15.435	5.47184
15.44	6.76881	15.44	6.66559
15.445	4.54359	15.445	4.21824
15.45	5.77771	15.45	6.05953
15.455	7.07336	15.455	7.04668
15.46	4.70246	15.46	4.44429
15.465	6.21418	15.465	5.78225
15.47	7.33605	15.47	6.77367
15.475	4.44779	15.475	4.56133
15.48	5.95325	15.48	5.80988
15.485	7.07034	15.485	6.73414
15.49	6.23073	15.49	5.74978
15.495	7.23985	15.495	6.65021
15.5	5.93226	15.5	6.03486
15.505	5.06827	15.505	5.40326
15.51	6.30042	15.51	6.32675
15.515	7.21235	15.515	7.00705
15.52	4.5533	15.52	4.17416
15.525	5.84854	15.525	5.33888
15.53	6.42074	15.53	6.58696
15.535	3.88867	15.535	3.79793
15.54	5.27905	15.54	4.99547
15.545	6.30946	15.545	5.88111
15.55	1.4482	15.55	2.16211
15.555	3.36574	15.555	3.68967
15.56	4.7914	15.56	4.82271
15.565	4.18274	15.565	3.99447
15.57	5.36459	15.57	5.0115
15.575	4.57302	15.575	4.09618
15.58	5.61762	15.58	5.04785
15.585	6.7754	15.585	5.3619
15.59	4.95835	15.59	4.92662
15.595	5.85704	15.595	5.61497
15.6	6.51836	15.6	6.1184
15.605	4.05778	15.605	2.76539
15.61	5.11948	15.61	3.92137
15.615	5.90297	15.615	4.77544
15.62	5.85228	15.62	6.02852
15.625	6.4247	15.625	6.3321
15.63	6.84116	15.63	6.54681
15.635	3.80984	15.635	3.36404
15.64	5.21214	15.64	3.87875
15.645	5.86905	15.645	4.63357
15.65	6.34877	15.65	5.18659
15.655	6.45703	15.655	5.82677
15.66	6.76662	15.66	6.05237
15.665	5.70733	15.665	4.15607
15.67	6.16883	15.67	4.75341
15.675	6.88881	15.675	4.80126
15.68	5.36842	15.68	3.54039
15.685	5.86588	15.685	4.23236
15.69	7.26573	15.69	7.02893
15.695	4.33098	15.695	3.12116
15.7	7.08897	15.7	5.1391
15.705	3.78068	15.705	2.03938
15.71	6.64031	15.71	4.28143
15.715	6.739	15.715	4.68054
15.72	6.56118	15.72	5.20499
15.725	6.6559	15.725	5.34347
15.73	7.10055	15.73	5.04694
15.735	7.03882	15.735	5.19292
15.74	7.36609	15.74	4.90197
15.745	8.88167	15.745	6.7175
15.75	8.35407	15.75	6.41474
15.755	8.33191	15.755	5.78719
15.76	9.58538	15.76	7.35024
15.765	8.62262	15.765	7.09661
15.77	8.1285	15.77	6.65141
15.775	9.40984	15.775	7.96932
15.78	7.42802	15.78	5.24092
15.785	8.86258	15.785	6.87915
15.79	9.93948	15.79	8.10869
15.795	9.4697	15.795	6.97938
15.8	8.72197	15.8	6.50062
15.805	9.81302	15.805	7.79327
15.81	9.35381	15.81	6.71126
15.815	10.2794	15.815	7.93332
15.82	9.30906	15.82	7.18529
15.825	10.6201	15.825	7.88901
15.83	9.55702	15.83	7.13407
15.835	10.4115	15.835	8.21953
15.84	9.38787	15.84	7.36901
15.845	10.6589	15.845	7.99583
15.85	11.2311	15.85	8.84857
15.855	9.99577	15.855	7.82348
15.86	10.721	15.86	8.7063
15.865	11.2658	15.865	9.36916
15.87	10.0099	15.87	8.20164
15.875	10.7197	15.875	8.97762
15.88	11.2528	15.88	9.56033
15.885	9.98814	15.885	8.33268
15.89	10.6913	15.89	9.06354
15.895	11.2196	15.895	9.61239
15.9	11.6165	15.9	10.0247
15.905	10.2497	15.905	8.66928
15.91	10.8763	15.91	9.30428
15.915	11.347	15.915	9.78121
15.92	10.0354	15.92	8.47419
15.925	10.7034	15.925	9.14548
15.93	9.53983	15.93	7.98422
15.935	10.3188	15.935	8.76481
15.94	11.1423	15.94	9.11237
15.945	11.5193	15.945	9.61508
15.95	10.1374	15.95	8.32737
15.955	10.7526	15.955	9.0131
15.96	11.2147	15.96	9.52802
15.965	11.1752	15.965	10.3018
15.97	9.47573	15.97	9.22241
15.975	10.2346	15.975	9.68252
15.98	10.8046	15.98	10.0282
15.985	9.18037	15.985	9.00962
15.99	9.99569	15.99	9.5153
15.995	10.8464	15.995	9.65661
16	9.57837	16	8.33919
16.005	9.89197	16.005	9.38953
16.01	10.1228	16.01	10.1829
16.015	8.62608	16.015	9.11823
16.02	9.15004	16.02	9.97623
16.025	10.551	16.025	9.61293
16.03	8.92682	16.03	8.68582
16.035	9.35512	16.035	9.64699
16.04	10.0589	16.04	9.98653
16.045	10.2004	16.045	10.6287
16.05	9.02362	16.05	9.06352
16.055	9.40564	16.055	9.92801
16.06	8.26084	16.06	8.67804
16.065	9.1942	16.065	9.25148
16.07	9.50788	16.07	10.069
16.075	9.73868	16.075	10.6877
16.08	8.24191	16.08	9.49191
16.085	9.15268	16.085	9.86455
16.09	9.44941	16.09	10.5315
16.095	10.2929	16.095	10.4117
16.1	8.63244	16.1	9.2853
16.105	9.4204	16.105	9.70998
16.11	9.23804	16.11	10.8028
16.115	8.20019	16.115	9.1938
16.12	8.6863	16.12	10.0253
16.125	9.67183	16.125	10.0289
16.13	8.50474	16.13	8.6081
16.135	8.50695	16.135	9.96768
16.14	9.27288	16.14	10.224
16.145	9.46092	16.145	10.8037
16.15	8.55749	16.15	8.95299
16.155	9.28992	16.155	9.45768
16.16	9.83976	16.16	9.83658
16.165	7.81337	16.165	9.22965
16.17	8.70871	16.17	9.66198
16.175	9.3807	16.175	9.98659
16.18	9.49826	16.18	10.6174
16.185	9.96878	16.185	10.709
16.19	8.89532	16.19	8.87409
16.195	9.50019	16.195	9.39059
16.2	9.56737	16.2	10.1653
16.205	7.94776	16.205	9.08629
16.21	8.76628	16.21	9.54642
16.215	9.38063	16.215	9.89185
16.22	10.0804	16.22	9.91272
16.225	10.3643	16.225	10.1701
16.23	8.52529	16.23	9.08503
16.235	9.17926	16.235	9.54056
16.24	9.67018	16.24	9.88252
16.245	10.0388	16.245	10.1393
16.25	10.9412	16.25	9.70671
16.255	8.94285	16.255	8.7274
16.26	9.47726	16.26	9.26223
16.265	9.87849	16.265	9.66365
16.27	10.1798	16.27	9.965
16.275	10.0193	16.275	10.5783
16.28	10.2812	16.28	10.6566
16.285	9.19965	16.285	8.66333
16.29	9.27095	16.29	9.58835
16.295	10.3322	16.295	9.27503
16.3	10.5052	16.3	9.66359
16.305	10.6354	16.305	9.95528
16.31	9.06808	16.31	8.50891
16.315	9.54385	16.315	9.07529
16.32	9.90107	16.32	9.50032
16.325	10.1694	16.325	9.81934
16.33	10.371	16.33	10.0589
16.335	10.5226	16.335	10.2387
16.34	8.97129	16.34	8.70851
16.345	10.0846	16.345	8.58649
16.35	10.2966	16.35	9.11847
16.355	10.456	16.355	9.51768
16.36	10.5759	16.36	9.81733
16.365	10.6662	16.365	10.0423
16.37	10.7343	16.37	10.2112
16.375	10.7858	16.375	10.3382
16.38	9.15935	16.38	8.76823
16.385	9.59076	16.385	9.24187
16.39	9.91468	16.39	9.5973
16.395	10.158	16.395	9.86409
16.4	10.3408	16.4	10.0644
16.405	11.1037	16.405	9.58936
16.41	11.053	16.41	9.85656
16.415	11.0153	16.415	10.0572
16.42	9.32202	16.42	8.54244
16.425	9.70326	16.425	9.05748
16.43	9.98953	16.43	9.44395
16.435	10.2046	16.435	9.73399
16.44	10.3662	16.44	9.95172
16.445	10.4877	16.445	10.1152
16.45	8.9138	16.45	8.57261
16.455	9.38458	16.455	9.06673
16.46	9.73797	16.46	9.43749
16.465	9.61639	16.465	10.1027
16.47	10.5329	16.47	9.5944
16.475	8.93185	16.475	8.17123
16.48	9.38229	16.48	8.75491
16.485	10.1074	16.485	8.80587
16.49	9.88265	16.49	9.61305
16.495	10.0963	16.495	9.83672
16.5	10.2568	16.5	10.0046
16.505	10.3775	16.505	10.1307
16.51	10.4683	16.51	10.2254
16.515	10.5367	16.515	10.2966
16.52	8.92288	16.52	8.68476
16.525	9.3637	16.525	9.12689
16.53	9.69459	16.53	9.45862
16.535	9.94303	16.535	9.70756
16.54	10.1296	16.54	9.89439
16.545	10.2699	16.545	10.0346
16.55	10.3753	16.55	10.14
16.555	10.4547	16.555	10.2191
16.56	10.5145	16.56	10.2786
16.565	8.89422	16.565	8.65792
16.57	9.33017	16.57	9.09343
16.575	9.27044	16.575	9.80713
16.58	9.99471	16.58	9.5737
16.585	9.76936	16.585	10.1676
16.59	10.608	16.59	9.60572
16.595	10.6139	16.595	9.80772
16.6	8.95319	16.6	8.29394
16.605	9.3588	16.605	8.80959
16.61	9.66325	16.61	9.19642
16.615	9.89183	16.615	9.48664
16.62	10.0635	16.62	9.7044
16.625	10.1925	16.625	9.86781
16.63	10.2895	16.63	9.99046
16.635	10.3624	16.635	10.0825
16.64	10.4174	16.64	10.1517
16.645	10.4589	16.645	10.2037
16.65	10.4902	16.65	10.2427
16.655	8.84858	16.655	8.60671
16.66	9.26845	16.66	9.03067
16.665	9.58357	16.665	9.34872
16.67	9.82014	16.67	9.58733
16.675	9.99778	16.675	9.76636
16.68	10.1312	16.68	9.9007
16.685	9.84459	16.685	10.3885
16.69	10.0117	16.69	10.3725
16.695	10.1372	16.695	10.3606
16.7	10.2316	16.7	10.3518
16.705	10.3026	16.705	10.3452
16.71	10.3561	16.71	10.3404
16.715	8.73104	16.715	8.67143
16.72	9.16333	16.72	9.07066
16.725	9.48775	16.725	9.37014
16.73	9.73127	16.73	9.5948
16.735	9.52716	16.735	10.1503
16.74	10.1431	16.74	9.79817
16.745	9.83642	16.745	10.3029
16.75	9.98849	16.75	10.2997
16.755	10.1027	16.755	10.2973
16.76	10.1886	16.76	10.2956
16.765	10.2533	16.765	10.2944
16.77	10.3019	16.77	10.2935
16.775	10.3386	16.775	10.2929
16.78	8.70094	16.78	8.6271
16.785	9.12376	16.785	9.02869
16.79	9.44106	16.79	9.32991
16.795	9.67921	16.795	9.55587
16.8	9.85801	16.8	9.72537
16.805	9.99229	16.805	9.85253
16.81	10.0932	16.81	9.94794
16.815	10.169	16.815	10.0195
16.82	10.2261	16.82	10.0733
16.825	10.2691	16.825	10.1136
16.83	10.3015	16.83	10.1439
16.835	9.70052	16.835	10.7921
16.84	9.87323	16.84	10.655
16.845	10.0029	16.845	10.5523
16.85	10.1004	16.85	10.4752
16.855	10.1737	16.855	10.4175
16.86	10.2288	16.86	10.3742
16.865	10.2704	16.865	10.3418
16.87	8.63631	16.87	8.65216
16.875	9.06182	16.875	9.03582
16.88	9.38111	16.88	9.32358
16.885	9.62074	16.885	9.53941
16.89	9.80062	16.89	9.70131
16.895	10.3226	16.895	9.4358
16.9	10.3325	16.9	9.61856
16.905	10.34	16.905	9.75564
16.91	10.3458	16.91	9.85847
16.915	10.3503	16.915	9.93561
16.92	10.3538	16.92	9.99348
16.925	10.3567	16.925	10.0369
16.93	10.3589	16.93	10.0695
16.935	10.3608	16.935	10.0939
16.94	10.7493	16.94	9.72535
16.945	10.659	16.945	9.8308
16.95	9.96593	16.95	10.5354
16.955	10.0696	16.955	10.4406
16.96	8.48206	16.96	8.70406
16.965	8.94246	16.965	9.05259
16.97	9.28791	16.97	9.31398
16.975	9.54713	16.975	9.51002
16.98	9.74169	16.98	9.65705
16.985	9.88775	16.985	9.76733
16.99	10.3844	16.99	9.46308
16.995	10.3751	16.995	9.61677
17	10.3683	17	9.73203
17.005	10.3634	17.005	9.81847
17.01	10.3598	17.01	9.88331
17.015	10.3573	17.015	9.93193
17.02	10.3555	17.02	9.9684
17.025	10.7413	17.025	9.6088
17.03	10.0234	17.03	10.3465
17.035	10.1084	17.035	10.2764
17.04	10.1723	17.04	10.2239
17.045	10.2203	17.045	10.1845
17.05	10.2565	17.05	10.1549
17.055	10.2838	17.055	10.1328
17.06	10.3044	17.06	10.1162
17.065	10.32	17.065	10.1037
17.07	10.3318	17.07	10.0944
17.075	10.7278	17.075	9.7004
17.08	10.643	17.08	9.7868
17.085	10.5796	17.085	9.8516
17.09	10.5322	17.09	9.9002
17.095	9.87127	17.095	10.5621
17.1	9.999	17.1	10.4353
17.105	10.4819	17.105	9.95324
17.11	10.4623	17.11	9.97356
17.115	10.4478	17.115	9.9888
17.12	8.77163	17.12	8.33484
17.125	9.16552	17.125	8.74524
17.13	9.46106	17.13	9.05302
17.135	9.68284	17.135	9.28384
17.14	9.84929	17.14	9.45694
17.145	10.3612	17.145	9.19979
17.15	9.97643	17.15	9.77573
17.155	9.83131	17.155	10.0643
17.16	9.964	17.16	10.0394
17.165	10.0636	17.165	10.0206
17.17	10.1385	17.17	10.0065
17.175	10.1947	17.175	9.99597
17.18	10.624	17.18	9.60107
17.185	10.5642	17.185	9.68675
17.19	10.5194	17.19	9.75099
17.195	10.486	17.195	9.79916
17.2	9.83558	17.2	10.4607
17.205	9.97115	17.205	10.3336
17.21	10.0729	17.21	10.2383
17.215	10.1494	17.215	10.1668
17.22	10.2069	17.22	10.1131
17.225	10.637	17.225	9.68592
17.23	10.5779	17.23	9.74737
17.235	10.5337	17.235	9.79344
17.24	10.5006	17.24	9.82797
17.245	10.476	17.245	9.85386
17.25	10.4576	17.25	9.87326
17.255	9.81842	17.255	10.5133
17.26	9.96245	17.26	10.37
17.265	10.0706	17.265	10.2625
17.27	10.1518	17.27	10.1819
17.275	10.2128	17.275	10.1214
17.28	10.6457	17.28	9.6891
17.285	10.5886	17.285	9.74671
17.29	10.5458	17.29	9.7899
17.295	10.5139	17.295	9.82228
17.3	10.4901	17.3	9.84655
17.305	10.4723	17.305	9.86473
17.31	10.4591	17.31	9.87836
17.315	9.82388	17.315	10.514
17.32	9.97082	17.32	10.3675
17.325	10.0811	17.325	10.2576
17.33	10.164	17.33	10.1752
17.335	10.2263	17.335	10.1133
17.34	10.2731	17.34	10.0669
17.345	10.3083	17.345	10.0321
17.35	10.3348	17.35	10.006
17.355	10.3549	17.355	9.98638
17.36	10.37	17.36	9.97166
17.365	10.3814	17.365	9.9606
17.37	10.3902	17.37	9.9523
17.375	9.77133	17.375	10.5715
17.38	9.9306	17.38	10.4127
17.385	10.0502	17.385	10.2935
17.39	10.14	17.39	10.2041
17.395	10.5944	17.395	9.75015
17.4	10.5534	17.4	9.79151
17.405	10.1359	17.405	10.2095
17.41	10.5916	17.41	9.75409
17.415	10.5517	17.415	9.79442
17.42	9.50947	17.42	10.8371
17.425	10.12	17.425	10.227
17.43	9.80916	17.43	10.5382
17.435	10.345	17.435	10.0028
17.44	9.97814	17.44	10.3701
17.445	10.4719	17.445	9.87666
17.45	10.4605	17.45	9.88847
17.455	10.0652	17.455	10.2843
17.46	10.5375	17.46	9.81229
17.465	10.5101	17.465	9.84015
17.47	9.86412	17.47	10.4865
17.475	10.003	17.475	10.348
17.48	10.1073	17.48	10.2441
17.485	10.1857	17.485	10.1662
17.49	10.2445	17.49	10.1077
17.495	10.2888	17.495	10.0639
17.5	10.3221	17.5	10.031
17.505	10.3472	17.505	10.0063
17.51	10.3661	17.51	9.98777
17.515	10.3805	17.515	9.97386
17.52	8.10044	17.52	8.9235
17.525	8.66468	17.525	9.16332
17.53	9.08795	17.53	9.34316
17.535	9.4055	17.535	9.47801
17.54	9.64375	17.54	9.57912
17.545	9.82253	17.545	9.65492
17.55	9.95672	17.55	9.71174
17.555	10.0574	17.555	9.75433
17.56	10.1331	17.56	9.78624
17.565	10.1899	17.565	9.81014
17.57	10.2326	17.57	9.82804
17.575	10.2647	17.575	9.84144
17.58	10.2889	17.58	9.85145
17.585	9.68169	17.585	10.4844
17.59	9.84962	17.59	10.3358
17.595	9.97566	17.595	10.2244
17.6	10.0703	17.6	10.1407
17.605	10.1413	17.605	10.078
17.61	10.1947	17.61	10.0309
17.615	10.2349	17.615	9.99557
17.62	10.2651	17.62	9.96903
17.625	10.2878	17.625	9.9491
17.63	9.67945	17.63	10.5596
17.635	10.2335	17.635	10.0072
17.64	10.2673	17.64	9.97479
17.645	10.2927	17.645	9.95044
17.65	10.3119	17.65	9.93214
17.655	10.3263	17.655	9.91839
17.66	10.3372	17.66	9.90805
17.665	9.72006	17.665	10.5258
17.67	9.88053	17.67	10.3657
17.675	10.001	17.675	10.2457
17.68	10.0914	17.68	10.1556
17.685	10.1593	17.685	10.0881
17.69	10.2103	17.69	10.0373
17.695	10.2487	17.695	9.99929
17.7	10.2775	17.7	9.97072
17.705	10.2993	17.705	9.94927
17.71	10.3157	17.71	9.93315
17.715	10.0895	17.715	10.1596
17.72	10.1614	17.72	10.088
17.725	10.2154	17.725	10.0342
17.73	10.256	17.73	9.99389
17.735	10.2865	17.735	9.96361
17.74	10.3095	17.74	9.94088
17.745	10.3268	17.745	9.92381
17.75	10.3399	17.75	9.91098
17.755	10.3498	17.755	9.90133
17.76	10.3574	17.76	9.89407
17.765	10.3631	17.765	9.8886
17.77	10.3675	17.77	9.88447
17.775	9.74537	17.775	10.5068
17.78	9.90216	17.78	10.3503
17.785	10.0198	17.785	10.2329
17.79	10.4951	17.79	9.75784
17.795	10.4698	17.795	9.7834
17.8	10.4509	17.8	9.80255
17.805	10.4369	17.805	9.81689
17.81	10.4264	17.81	9.82761
17.815	10.4186	17.815	9.83563
17.82	10.4129	17.82	9.84163
17.825	9.78318	17.825	10.4716
17.83	9.93427	17.83	10.3207
17.835	10.0477	17.835	10.2076
17.84	10.1328	17.84	10.1227
17.845	10.1968	17.845	10.059
17.85	10.2448	17.85	10.0112
17.855	10.2809	17.855	9.97536
17.86	10.3081	17.86	9.94844
17.865	10.3286	17.865	9.92822
17.87	10.731	17.87	9.52609
17.875	10.0255	17.875	10.2318
17.88	10.1198	17.88	10.1378
17.885	10.1905	17.885	10.0673
17.89	10.2437	17.89	10.0144
17.895	10.2837	17.895	9.97466
17.9	10.3137	17.9	9.94485
17.905	10.3364	17.905	9.92248
17.91	9.72795	17.91	10.5312
17.915	9.895	17.915	10.3644
17.92	10.0204	17.92	10.2393
17.925	10.1145	17.925	10.1454
17.93	10.1851	17.93	10.075
17.935	10.2382	17.935	10.0222
17.94	10.2781	17.94	9.98251
17.945	10.3081	17.945	9.95275
17.95	10.3307	17.95	9.93041
17.955	10.3478	17.955	9.91363
17.96	10.3606	17.96	9.90103
17.965	10.3704	17.965	9.89156
17.97	9.75226	17.97	10.5099
17.975	9.91205	17.975	10.3504
17.98	10.032	17.98	10.2307
17.985	10.122	17.985	10.1409
17.99	10.1896	17.99	10.0736
17.995	10.6273	17.995	9.63611
18	10.1869	18	10.0768
18.005	10.6255	18.005	9.63847
18.01	10.5726	18.01	9.69158
18.015	10.5331	18.015	9.73138
18.02	10.5035	18.02	9.76122
18.025	10.4814	18.025	9.78357
18.03	9.83944	18.03	10.4258
18.035	9.98132	18.035	10.2842
18.04	10.0878	18.04	10.1779
18.045	10.1678	18.045	10.0982
18.05	10.2278	18.05	10.0384
18.055	10.2729	18.055	9.99359
18.06	10.3069	18.06	9.95992
18.065	10.3324	18.065	9.93465
18.07	10.3516	18.07	9.91567
18.075	10.3661	18.075	9.90142
18.08	10.3771	18.08	9.89072
18.085	10.3854	18.085	9.88267
18.09	10.3917	18.09	9.87661
18.095	9.77104	18.095	10.4975
18.1	9.9289	18.1	10.3399
18.105	10.0474	18.105	10.2217
18.11	10.1363	18.11	10.133
18.115	10.2031	18.115	10.0665
18.12	10.2533	18.12	10.0166
18.125	10.291	18.125	9.97911
18.13	10.3194	18.13	9.951
18.135	10.3407	18.135	9.92989
18.14	10.7438	18.14	9.5271
18.145	10.2773	18.145	9.9938
18.15	9.68396	18.15	10.5874
18.155	10.2492	18.155	10.0224
18.16	9.90446	18.16	10.3674
18.165	10.4148	18.165	9.85737
18.17	10.0288	18.17	10.2436
18.175	10.5082	18.175	9.76448
18.18	10.099	18.18	10.1739
18.185	10.561	18.185	9.71216
18.19	10.1388	18.19	10.1346
18.195	10.2041	18.195	10.0696
18.2	10.64	18.2	9.63389
18.205	10.5853	18.205	9.68893
18.21	9.91876	18.21	10.3557
18.215	10.0422	18.215	10.2325
18.22	10.1349	18.22	10.14
18.225	10.2045	18.225	10.0707
18.23	10.2568	18.23	10.0186
18.235	10.2961	18.235	9.97961
18.24	10.3257	18.24	9.95032
18.245	10.3479	18.245	9.92833
18.25	10.3647	18.25	9.91182
18.255	10.3773	18.255	9.89942
18.26	8.7215	18.26	8.22471
18.265	9.13058	18.265	8.61953
18.27	9.43746	18.27	8.91561
18.275	9.66768	18.275	9.13764
18.28	9.21492	18.28	9.9296
18.285	9.49869	18.285	9.90027
18.29	9.71157	18.29	9.87823
18.295	9.8713	18.295	9.86167
18.3	9.99115	18.3	9.84921
18.305	10.0811	18.305	9.83983
18.31	10.1486	18.31	9.83276
18.315	10.1993	18.315	9.82743
18.32	10.2374	18.32	9.82339
18.325	10.2661	18.325	9.82033
18.33	10.2876	18.33	9.81799
18.335	10.3038	18.335	9.81621
18.34	10.316	18.34	9.81483
18.345	10.3252	18.345	9.81377
18.35	10.3322	18.35	9.81293
18.355	10.3375	18.355	9.81227
18.36	10.3415	18.36	9.81174
18.365	9.71914	18.365	10.4368
18.37	9.87568	18.37	10.2823
18.375	9.99314	18.375	10.1663
18.38	10.0813	18.38	10.0794
18.385	10.1475	18.385	10.0141
18.39	10.1972	18.39	9.96511
18.395	10.2345	18.395	9.92834
18.4	10.2625	18.4	9.90073
18.405	10.2836	18.405	9.87998
18.41	10.2995	18.41	9.86439
18.415	10.3115	18.415	9.85266
18.42	10.3206	18.42	9.84383
18.425	10.3274	18.425	9.83717
18.43	10.3326	18.43	9.83215
18.435	10.3365	18.435	9.82834
18.44	10.3396	18.44	9.82545
18.445	10.3419	18.445	9.82325
18.45	9.95674	18.45	10.2085
18.455	9.42433	18.455	10.741
18.46	11.3138	18.46	12.1825
18.465	11.08	18.465	11.6127
18.47	11.2917	18.47	10.7984
18.475	10.6818	18.475	10.9565
18.48	10.6062	18.48	10.6932
18.485	10.5497	18.485	10.4957
18.49	10.5073	18.49	10.3475
18.495	10.4757	18.495	10.2364
18.5	10.452	18.5	10.153
18.505	10.4343	18.505	10.0905
18.51	10.4211	18.51	10.0436
18.515	10.4113	18.515	10.0084
18.52	10.404	18.52	9.98198
18.525	10.3986	18.525	9.96216
18.53	10.3947	18.53	9.94728
18.535	10.3918	18.535	9.9361
18.54	10.3897	18.54	9.92771
18.545	10.3882	18.545	9.9214
18.55	10.3872	18.55	9.91665
18.555	10.3865	18.555	9.91307
18.56	10.386	18.56	9.91038
18.565	10.3858	18.565	9.90834
18.57	10.3856	18.57	9.9068
18.575	10.3856	18.575	9.90563
18.58	10.3857	18.58	9.90474
18.585	10.3858	18.585	9.90406
18.59	10.386	18.59	9.90353
18.595	9.76075	18.595	10.5286
18.6	9.91515	18.6	10.3741
18.605	10.031	18.605	10.2583
18.61	8.45261	18.61	8.50594
18.615	8.91975	18.615	8.84256
18.62	8.88321	18.62	9.48194
18.625	9.23774	18.625	9.57958
18.63	9.50369	18.63	9.65278
18.635	9.70321	18.635	9.70764
18.64	9.85291	18.64	9.74876
18.645	9.96524	18.645	9.77957
18.65	10.0495	18.65	9.80264
18.655	10.1128	18.655	9.81991
18.66	10.1604	18.66	9.83283
18.665	10.1961	18.665	9.84249
18.67	10.2229	18.67	9.8497
18.675	10.2431	18.675	9.85508
18.68	10.2583	18.68	9.85908
18.685	10.2697	18.685	9.86205
18.69	10.2784	18.69	9.86424
18.695	10.2849	18.695	9.86585
18.7	10.2899	18.7	9.86703
18.705	10.2937	18.705	9.86788
18.71	10.2966	18.71	9.86849
18.715	9.67331	18.715	10.4944
18.72	9.44225	18.72	10.7275
18.725	9.65088	18.725	10.5204
18.73	9.80741	18.73	10.365
18.735	9.92486	18.735	10.2485
18.74	10.013	18.74	10.161
18.745	10.0792	18.745	10.0954
18.75	10.1289	18.75	10.0462
18.755	10.1662	18.755	10.0092
18.76	10.1942	18.76	9.98146
18.765	10.2153	18.765	9.96062
18.77	10.2312	18.77	9.94495
18.775	10.2432	18.775	9.93317
18.78	10.2522	18.78	9.9243
18.785	10.259	18.785	9.91762
18.79	10.2642	18.79	9.91258
18.795	10.2681	18.795	9.90877
18.8	10.2711	18.8	9.90588
18.805	10.2735	18.805	9.90368
18.81	10.2753	18.81	9.90199
18.815	10.2767	18.815	9.9007
18.82	10.2778	18.82	9.8997
18.825	10.2787	18.825	9.89892
18.83	10.2794	18.83	9.8983
18.835	10.28	18.835	9.89781
18.84	10.2805	18.84	9.89741
18.845	10.2809	18.845	9.89707
18.85	10.2813	18.85	9.89679
18.855	10.2817	18.855	9.89655
18.86	10.282	18.86	9.89634
18.865	10.2823	18.865	9.89615
18.87	10.2825	18.87	9.89597
18.875	10.2828	18.875	9.89581
18.88	10.2831	18.88	9.89566
18.885	10.2833	18.885	9.89551
18.89	10.2835	18.89	9.89537
18.895	11.9492	18.895	11.5606
18.9	11.5476	18.9	11.1587
18.905	10.621	18.905	11.4827
18.91	10.5494	18.91	11.1024
18.915	10.4958	18.915	10.8172
18.92	10.4556	18.92	10.6032
18.925	10.4256	18.925	10.4428
18.93	10.4031	18.93	10.3224
18.935	10.3864	18.935	10.2321
18.94	10.3739	18.94	10.1644
18.945	10.3646	18.945	10.1136
18.95	10.3577	18.95	10.0755
18.955	10.3526	18.955	10.0469
18.96	9.9619	18.96	10.4124
18.965	10.4378	18.965	9.91769
18.97	10.4129	18.97	9.92852
18.975	10.3943	18.975	9.93662
18.98	10.3804	18.98	9.94269
18.985	10.3701	18.985	9.94723
18.99	10.3624	18.99	9.95063
18.995	10.3567	18.995	9.95316
19	10.3526	19	9.95505
19.005	10.3495	19.005	9.95646
19.01	9.96032	19.01	10.3444
19.015	10.0504	19.015	10.2536
19.02	10.118	19.02	10.1854
19.025	10.1688	19.025	10.1342
19.03	10.207	19.03	10.0959
19.035	10.2357	19.035	10.0671
19.04	10.2573	19.04	10.0455
19.045	10.2736	19.045	10.0293
19.05	10.2858	19.05	10.0171
19.055	10.2951	19.055	10.008
19.06	10.3022	19.06	10.0011
19.065	10.3075	19.065	9.99595
19.07	10.3116	19.07	9.99206
19.075	10.3148	19.075	9.98914
19.08	10.3172	19.08	9.98694
19.085	10.3191	19.085	9.98528
19.09	10.3206	19.09	9.98402
19.095	10.3218	19.095	9.98306
19.1	9.93582	19.1	10.3693
19.105	10.4152	19.105	9.89012
19.11	10.006	19.11	10.2996
19.115	10.0811	19.115	10.2248
19.12	10.1375	19.12	10.1686
19.125	10.1798	19.125	10.1265
19.13	10.2117	19.13	10.095
19.135	10.2356	19.135	10.0713
19.14	10.2536	19.14	10.0535
19.145	10.2673	19.145	10.0401
19.15	10.2775	19.15	10.0301
19.155	10.2853	19.155	10.0226
19.16	10.2912	19.16	10.0169
19.165	10.2957	19.165	10.0127
19.17	10.2992	19.17	10.0095
19.175	10.3019	19.175	10.007
19.18	10.3039	19.18	10.0052
19.185	10.3056	19.185	10.0038
19.19	10.3069	19.19	10.0028
19.195	8.64253	19.195	8.33661
19.2	9.04521	19.2	8.73783
19.205	9.34729	19.205	9.03872
19.21	8.94842	19.21	9.88983
19.215	9.27259	19.215	9.90486
19.22	9.51578	19.22	9.91611
19.225	9.69822	19.225	9.92451
19.23	9.83511	19.23	9.93079
19.235	9.93783	19.235	9.93546
19.24	10.0149	19.24	9.93894
19.245	9.68586	19.245	10.3285
19.25	10.2079	19.25	9.85177
19.255	9.83071	19.255	10.263
19.26	9.92973	19.26	10.1896
19.265	10.004	19.265	10.1345
19.27	10.0598	19.27	10.0931
19.275	10.1017	19.275	10.062
19.28	10.1332	19.28	10.0387
19.285	10.1569	19.285	10.0212
19.29	10.1747	19.29	10.008
19.295	10.1881	19.295	9.99812
19.3	10.1982	19.3	9.99067
19.305	10.2058	19.305	9.98504
19.31	10.2116	19.31	9.98079
19.315	10.216	19.315	9.97758
19.32	10.2194	19.32	9.97514
19.325	10.2219	19.325	9.97328
19.33	10.2239	19.33	9.97185
19.335	10.2254	19.335	9.97076
19.34	10.2267	19.34	9.9699
19.345	10.2276	19.345	9.96924
19.35	10.2284	19.35	9.9687
19.355	10.229	19.355	9.96828
19.36	10.2296	19.36	9.96793
19.365	10.23	19.365	9.96764
19.37	10.2304	19.37	9.96739
19.375	10.2308	19.375	9.96717
19.38	10.2311	19.38	9.96698
19.385	10.2314	19.385	9.96681
19.39	10.2317	19.39	9.96665
19.395	10.2319	19.395	9.9665
19.4	10.2322	19.4	9.96636
19.405	10.2324	19.405	9.96622
19.41	10.2327	19.41	9.96609
19.415	10.2329	19.415	9.96597
19.42	10.2331	19.42	9.96584
19.425	10.2333	19.425	9.96572
19.43	10.2336	19.43	9.9656
19.435	10.2338	19.435	9.96547
19.44	10.234	19.44	9.96535
19.445	10.2342	19.445	9.96524
19.45	9.84751	19.45	10.3521
19.455	10.3263	19.455	9.87334
19.46	10.3036	19.46	9.89614
19.465	11.5651	19.465	11.9655
19.47	11.2423	19.47	11.4848
19.475	11.0002	19.475	11.1243
19.48	11.2057	19.48	10.4669
19.485	10.5911	19.485	10.7427
19.49	10.5121	19.49	10.5677
19.495	10.4529	19.495	10.4364
19.5	10.4085	19.5	10.3379
19.505	10.3754	19.505	10.264
19.51	10.3506	19.51	10.2086
19.515	10.332	19.515	10.167
19.52	10.3182	19.52	10.1359
19.525	10.3079	19.525	10.1125
19.53	10.3003	19.53	10.0949
19.535	10.2946	19.535	10.0817
19.54	10.2904	19.54	10.0718
19.545	10.2874	19.545	10.0644
19.55	10.2852	19.55	10.0588
19.555	10.2836	19.555	10.0546
19.56	10.2825	19.56	10.0514
19.565	10.2817	19.565	10.0491
19.57	10.2812	19.57	10.0473
19.575	10.2809	19.575	10.0459
19.58	10.2807	19.58	10.0449
19.585	10.2807	19.585	10.0441
19.59	10.2808	19.59	10.0435
19.595	10.2809	19.595	10.0431
19.6	10.281	19.6	10.0427
19.605	10.2812	19.605	10.0424
19.61	9.89448	19.61	10.4292
19.615	10.3733	19.615	9.95038
19.62	9.96371	19.62	10.3601
19.625	10.0384	19.625	10.2855
19.63	10.0946	19.63	10.2296
19.635	10.1367	19.635	10.1876
19.64	10.1684	19.64	10.1561
19.645	8.52688	19.645	8.46708
19.65	8.94667	19.65	8.85118
19.655	9.26156	19.655	9.13922
19.66	9.49779	19.66	9.35522
19.665	9.67501	19.665	9.5172
19.67	9.80799	19.67	9.63865
19.675	9.90777	19.675	9.72971
19.68	9.35719	19.68	10.4234
19.685	9.56757	19.685	10.3205
19.69	9.72542	19.69	10.2432
19.695	9.84385	19.695	10.1852
19.7	9.93274	19.7	10.1417
19.705	9.99945	19.705	10.109
19.71	10.0495	19.71	10.0845
19.715	10.0872	19.715	10.0661
19.72	10.1154	19.72	10.0522
19.725	10.1367	19.725	10.0418
19.73	10.1527	19.73	10.034
19.735	10.1647	19.735	10.0281
19.74	10.1738	19.74	10.0236
19.745	10.1807	19.745	10.0202
19.75	10.1859	19.75	10.0177
19.755	10.1899	19.755	10.0157
19.76	10.1929	19.76	10.0142
19.765	10.1952	19.765	10.0131
19.77	10.197	19.77	10.0122
19.775	10.1984	19.775	10.0115
19.78	10.1995	19.78	10.011
19.785	10.2004	19.785	10.0105
19.79	10.2011	19.79	10.0102
19.795	10.2017	19.795	10.0099
19.8	10.2022	19.8	10.0096
19.805	10.2026	19.805	10.0094
19.81	10.203	19.81	10.0092
19.815	10.2033	19.815	10.009
19.82	10.2037	19.82	10.0089
19.825	10.2039	19.825	10.0087
19.83	10.2042	19.83	10.0086
19.835	10.5914	19.835	9.62152
19.84	10.5	19.84	9.71304
19.845	10.4315	19.845	9.78166
19.85	10.3802	19.85	9.8331
19.855	10.3417	19.855	9.87164
19.86	10.3129	19.86	9.90053
19.865	10.2914	19.865	9.92216
19.87	10.2753	19.87	9.93836
19.875	10.2633	19.875	9.95047
19.88	10.2544	19.88	9.95954
19.885	10.2477	19.885	9.9663
19.89	10.2427	19.89	9.97135
19.895	10.2391	19.895	9.97511
19.9	10.2364	19.9	9.97789
19.905	10.2344	19.905	9.97996
19.91	10.233	19.91	9.98148
19.915	10.232	19.915	9.98259
19.92	10.2313	19.92	9.98339
19.925	10.2308	19.925	9.98397
19.93	10.6175	19.93	9.59742
19.935	10.1387	19.935	10.0763
19.94	10.5485	19.94	9.66662
19.945	10.474	19.945	9.74119
19.95	10.4182	19.95	9.79709
19.955	10.3764	19.955	9.83899
19.96	10.3451	19.96	9.87039
19.965	10.3217	19.965	9.8939
19.97	10.3042	19.97	9.91151
19.975	10.2911	19.975	9.92469
19.98	10.2814	19.98	9.93455
19.985	10.2741	19.985	9.94191
19.99	10.2687	19.99	9.94741
19.995	10.2647	19.995	9.9515
20	-2.8875	20	-3.19477
20.005	-2.90711	20.005	-3.20997
20.01	-3.31306	20.01	-2.83882
20.015	-2.85303	20.015	-3.33366
20.02	-3.28113	20.02	-2.94037
20.025	-1.55924	20.025	-1.36626
20.03	-1.92302	20.03	-1.84094
20.035	-2.20014	20.035	-2.20133
20.04	-3.03775	20.04	-1.85051
20.045	-3.04697	20.045	-2.21504
20.05	-3.05818	20.05	-2.49281
20.055	-3.07088	20.055	-2.70551
20.06	-2.69775	20.06	-3.25635
20.065	-1.76414	20.065	-1.00111
20.07	-2.48278	20.07	-1.20125
20.075	-2.25721	20.075	-2.12452
20.08	-2.86113	20.08	-2.05251
20.085	-1.27107	20.085	-0.719324
20.09	-1.73368	20.09	-1.37466
20.095	-2.71036	20.095	-1.24501
20.1	-2.82386	20.1	-1.77538
20.105	-1.24784	20.105	-0.512094
20.11	-1.72096	20.11	-1.21983
20.115	-0.653167	20.115	0.148982
20.12	0.0124239	20.12	1.33134
20.125	-0.374662	20.125	-0.205862
20.13	-0.0111241	20.13	1.3097
20.135	0.895126	20.135	1.83336
20.14	1.34662	20.14	2.4749
20.145	1.93701	20.145	2.72494
20.15	3.4301	20.15	5.21366
20.155	3.53272	20.155	4.81638
20.16	4.00706	20.16	4.14184
20.165	3.36593	20.165	4.65367
20.17	3.51883	20.17	4.42468
20.175	5.07086	20.175	6.16729
20.18	4.83593	20.18	5.59241
20.185	4.67028	20.185	5.17174
20.19	7.64887	20.19	8.43607
20.195	6.83307	20.195	7.35169
20.2	6.23185	20.2	6.54898
20.205	9.50935	20.205	8.9014
20.21	8.05601	20.21	7.99498
20.215	10.9359	20.215	10.0283
20.22	9.42295	20.22	8.64409
20.225	8.29906	20.225	7.61669
20.23	7.85392	20.23	6.46997
20.235	7.14906	20.235	6.00259
20.24	6.00581	20.24	6.28834
20.245	9.50027	20.245	8.83407
20.25	8.44842	20.25	7.83433
20.255	8.05745	20.255	6.70849
20.26	12.3895	20.26	11.2531
20.265	11.0839	20.265	9.33293
20.27	9.73394	20.27	8.2857
20.275	13.8772	20.275	12.3591
20.28	11.9026	20.28	10.613
20.285	10.4329	20.285	9.31464
20.29	16.7773	20.29	14.2397
20.295	14.1796	20.295	12.1049
20.3	13.9081	20.3	12.1805
20.305	15.3957	20.305	13.9284
20.31	13.608	20.31	11.5619
20.315	17.28	20.315	14.7896
20.32	14.7109	20.32	12.651
20.325	19.8442	20.325	17.3332
20.33	17.1073	20.33	14.2478
20.335	14.6845	20.335	12.3271
20.34	17.8752	20.34	15.8945
20.345	15.3273	20.345	13.629
20.35	17.3844	20.35	14.647
20.355	15.401	20.355	12.3567
20.36	18.5396	20.36	16.0289
20.365	15.9528	20.365	13.8422
20.37	17.7424	20.37	15.1579
20.375	15.4129	20.375	13.2367
20.38	15.3432	20.38	13.4732
20.385	17.6084	20.385	14.717
20.39	15.3944	20.39	12.9834
20.395	17.0768	20.395	15.026
20.4	15.049	20.4	13.2684
20.405	13.5404	20.405	11.9623
20.41	14.0865	20.41	12.6603
20.415	13.483	20.415	10.9196
20.42	12.4194	20.42	10.2496
20.425	13.2994	20.425	11.4248
20.43	10.6555	20.43	9.00214
20.435	10.9612	20.435	8.22286
20.44	11.8581	20.44	10.3263
20.445	10.6487	20.445	10.509
20.45	11.0028	20.45	9.40961
20.455	11.936	20.455	11.2731
20.46	11.3793	20.46	10.6503
20.465	11.5998	20.465	9.57023
20.47	12.4329	20.47	11.4482
20.475	11.8013	20.475	10.8365
20.48	14.284	20.48	14.1079
20.485	12.8518	20.485	13.2774
20.49	12.1721	20.49	12.2852
20.495	11.9136	20.495	11.3151
20.5	11.491	20.5	10.8416
20.505	9.13447	20.505	9.22067
20.51	11.5825	20.51	13.7783
20.515	10.8881	20.515	13.1488
20.52	13.9444	20.52	15.7867
20.525	11.4227	20.525	12.6703
20.53	13.3652	20.53	16.4883
20.535	12.6787	20.535	14.9172
20.54	10.1245	20.54	12.4734
20.545	10.493	20.545	11.6838
20.55	8.48865	20.55	10.0675
20.555	8.64411	20.555	10.5241
20.56	9.66011	20.56	13.3238
20.565	8.8899	20.565	10.3492
20.57	6.67504	20.57	9.75233
20.575	9.58688	20.575	11.3903
20.58	8.2261	20.58	9.55678
20.585	6.81711	20.585	8.56709
20.59	7.80618	20.59	9.10683
20.595	8.56105	20.595	9.52462
20.6	7.08794	20.6	8.57252
20.605	7.64201	20.605	9.52744
20.61	6.78713	20.61	8.20939
20.615	7.03608	20.615	9.65868
20.62	8.62513	20.62	9.36948
20.625	7.15444	20.625	8.51047
20.63	7.71038	20.63	9.53525
20.635	6.85697	20.635	8.26967
20.64	6.21557	20.64	7.31906
20.645	7.01163	20.645	8.65703
20.65	6.33833	20.65	7.62635
20.655	7.49743	20.655	8.51735
20.66	6.71456	20.66	7.53332
20.665	6.1261	20.665	6.79392
20.67	7.34886	20.67	7.90339
20.675	6.61375	20.675	7.08324
20.68	6.06113	20.68	6.46676
20.685	7.31079	20.685	7.66845
20.69	6.20892	20.69	7.30442
20.695	5.76313	20.695	6.6482
20.7	7.09291	20.7	7.82009
20.705	6.43812	20.705	7.04679
20.71	7.61117	20.71	8.13089
20.715	6.21336	20.715	7.91726
20.72	7.0655	20.72	9.1848
20.725	6.43438	20.725	8.10142
20.73	6.34677	20.73	6.90065
20.735	7.56339	20.735	8.04606
20.74	6.43683	20.74	7.6399
20.745	6.35953	20.745	6.56521
20.75	7.5839	20.75	7.8052
20.755	8.51551	20.755	8.74844
20.76	7.94913	20.76	7.41681
20.765	8.80672	20.765	8.46413
20.77	9.46329	20.77	9.26292
20.775	8.30371	20.775	8.20993
20.78	9.48526	20.78	8.69745
20.785	7.71209	20.785	8.41838
20.79	8.66979	20.79	9.25003
20.795	7.7361	20.795	8.22174
20.8	7.03476	20.8	7.44937
20.805	8.56002	20.805	8.14739
20.81	9.33555	20.81	9.06615
20.815	8.26527	20.815	8.10322
20.82	7.84847	20.82	6.99297
20.825	8.81837	20.825	8.20644
20.83	7.89388	20.83	7.46455
20.835	8.8649	20.835	8.57245
20.84	9.99362	20.84	9.02986
20.845	8.80642	20.845	8.10284
20.85	7.91504	20.85	7.40652
20.855	9.29787	20.855	8.16168
20.86	8.30128	20.86	7.45799
20.865	9.21827	20.865	8.59459
20.87	9.68105	20.87	9.69907
20.875	8.61773	20.875	8.63413
20.88	8.20626	20.88	7.44749
20.885	9.18027	20.885	8.60378
20.89	9.92438	20.89	9.48453
20.895	9.21763	20.895	8.1063
20.9	9.97022	20.9	9.11893
20.905	8.8829	20.905	8.22658
20.91	10.1189	20.91	8.83483
20.915	10.6777	20.915	9.68647
20.92	9.44506	20.92	8.67342
20.925	8.90671	20.925	7.52578
20.93	9.78565	20.93	8.71142
20.935	8.79316	20.935	7.94888
20.94	9.0879	20.94	9.66697
20.945	8.6675	20.945	8.29358
20.95	9.63494	20.95	9.30993
20.955	8.70886	20.955	8.42047
20.96	10.0659	20.96	9.03098
20.965	10.7155	20.965	9.88442
20.97	9.55113	20.97	8.87281
20.975	10.7295	20.975	9.39175
20.98	9.57973	20.98	8.51114
20.985	8.71672	20.985	7.84991
20.99	11.3995	20.99	10.684
20.995	10.1092	20.995	9.50704
21	11.1931	21	9.90203
21.005	9.97265	21.005	8.92852
21.01	10.722	21.01	9.86306
21.015	11.6849	21.015	10.1908
21.02	10.3737	21.02	9.16693
21.025	11.055	21.025	10.0637
21.03	9.28907	21.03	9.71024
21.035	10.2527	21.035	10.4866
21.04	9.32392	21.04	9.41731
21.045	8.62677	21.045	8.6147
21.05	9.76872	21.05	9.6775
21.055	8.97374	21.055	8.82309
21.06	8.37694	21.06	8.18165
21.065	9.59418	21.065	9.36534
21.07	8.85568	21.07	8.6016
21.075	8.30126	21.075	8.0282
21.08	9.55031	21.08	9.26294
21.085	8.83568	21.085	8.53751
21.09	8.29918	21.09	7.99285
21.095	7.89629	21.095	7.58377
21.1	8.87206	21.1	9.32871
21.105	8.33435	21.105	8.60409
21.11	7.93057	21.11	8.06006
21.115	9.29263	21.115	9.31687
21.12	8.6628	21.12	8.60803
21.125	8.18994	21.125	8.07585
21.13	7.83482	21.13	7.67617
21.135	8.84644	21.135	9.4282
21.14	8.33567	21.14	8.70893
21.145	7.95213	21.145	8.16896
21.15	7.66401	21.15	7.76344
21.155	9.11286	21.155	9.12417
21.16	8.54815	21.16	8.49332
21.165	7.4987	21.165	8.64515
21.17	7.33444	21.17	8.13524
21.175	8.8762	21.175	9.41769
21.18	8.3812	21.18	8.72815
21.185	8.00952	21.185	8.2105
21.19	7.34339	21.19	8.20872
21.195	8.89063	21.195	9.49042
21.2	8.39976	21.2	8.80034
21.205	8.0312	21.205	8.2823
21.21	9.41978	21.21	9.5587
21.215	8.80992	21.215	8.86466
21.22	8.35215	21.22	8.34367
21.225	7.62148	21.225	8.33942
21.23	7.45496	21.23	7.95392
21.235	8.99508	21.235	9.32974
21.24	7.87343	21.24	9.33576
21.245	7.65509	21.245	8.71657
21.25	7.49097	21.25	8.25174
21.255	9.03291	21.255	9.56809
21.26	8.53812	21.26	8.90404
21.265	8.16668	21.265	8.40559
21.27	9.55314	21.27	9.69674
21.275	8.94177	21.275	9.01381
21.28	8.48291	21.28	8.50122
21.285	8.13843	21.285	8.11639
21.29	7.87974	21.29	7.82737
21.295	7.6854	21.295	7.61021
21.3	7.53931	21.3	7.44695
21.305	7.42941	21.305	7.3241
21.31	8.38657	21.31	9.52246
21.315	8.07651	21.315	8.89668
21.32	7.84365	21.32	8.42698
21.325	9.33409	21.325	9.73972
21.33	8.80074	21.33	9.07303
21.335	8.40043	21.335	8.57266
21.34	8.0999	21.34	8.19703
21.345	7.87421	21.345	7.91495
21.35	9.37005	21.35	9.36843
21.355	8.84076	21.355	8.80732
21.36	8.44352	21.36	8.38614
21.365	8.14532	21.365	8.06993
21.37	7.29591	21.37	8.45791
21.375	7.28185	21.375	8.12529
21.38	8.93643	21.38	9.54089
21.385	8.52622	21.385	8.95138
21.39	8.2183	21.39	8.50894
21.395	8.37405	21.395	7.78984
21.4	8.10875	21.4	7.63206
21.405	7.90951	21.405	7.51342
21.41	7.75983	21.41	7.42412
21.415	7.64731	21.415	7.35683
21.42	9.22806	21.42	8.97145
21.425	8.7625	21.425	8.53122
21.43	8.80003	21.43	7.8138
21.435	8.44608	21.435	7.65731
21.44	7.55491	21.44	8.16513
21.445	7.50956	21.445	7.92242
21.45	7.47531	21.45	7.7401
21.455	9.50172	21.455	8.88151
21.46	8.98856	21.46	8.46827
21.465	8.60347	21.465	8.15806
21.47	8.31444	21.47	7.92513
21.475	8.48439	21.475	7.3632
21.48	8.22977	21.48	7.32335
21.485	8.03858	21.485	7.29319
21.49	9.56037	21.49	8.93568
21.495	8.42514	21.495	9.14189
21.5	8.58374	21.5	8.28606
21.505	8.32062	21.505	8.02581
21.51	8.51003	21.51	7.44341
21.515	8.27002	21.515	7.38822
21.52	8.08981	21.52	7.34658
21.525	7.95446	21.525	7.31509
21.53	7.85274	21.53	7.29121
21.535	7.77625	21.535	7.27305
21.54	9.38408	21.54	8.92457
21.545	9.32583	21.545	8.12514
21.55	8.27461	21.55	8.53267
21.555	8.10929	21.555	8.21481
21.56	7.98512	21.56	7.97618
21.565	7.8918	21.565	7.79697
21.57	8.20858	21.57	7.27539
21.575	8.06412	21.575	7.26582
21.58	7.95559	21.58	7.25842
21.585	7.87402	21.585	7.25263
21.59	7.81265	21.59	7.24805
21.595	9.43184	21.595	8.90978
21.6	9.38212	21.6	8.11801
21.605	8.96281	21.605	7.90584
21.61	8.64816	21.61	7.7465
21.615	8.41201	21.615	7.62677
21.62	8.23473	21.62	7.53676
21.625	8.48856	21.625	7.08209
21.63	7.67142	21.63	7.74822
21.635	7.68168	21.635	7.62432
21.64	7.68921	21.64	7.53119
21.645	7.69469	21.645	7.46112
21.65	9.36403	21.65	9.07375
21.655	9.35195	21.655	8.24519
21.66	8.96088	21.66	8.00544
21.665	8.66743	21.665	7.82542
21.67	8.4472	21.67	7.69022
21.675	8.28188	21.675	7.58862
21.68	8.5447	21.68	7.12528
21.685	8.3598	21.685	7.15944
21.69	8.22098	21.69	7.18486
21.695	8.11672	21.695	7.20374
21.7	7.4129	21.7	7.84317
21.705	7.50816	21.705	7.69929
21.71	7.57946	21.71	7.59117
21.715	8.01974	21.715	7.12295
21.72	7.96794	21.72	7.15345
21.725	7.92894	21.725	7.17613
21.73	7.89955	21.73	7.19294
21.735	7.87736	21.735	7.20536
21.74	7.86057	21.74	7.21447
21.745	9.51323	21.745	8.88651
21.75	9.48865	21.75	8.10253
21.755	9.08822	21.755	7.89623
21.76	8.78778	21.76	7.74132
21.765	8.56232	21.765	7.62497
21.77	8.3931	21.77	7.53753
21.775	7.64057	21.775	8.09725
21.78	7.69933	21.78	7.8936
21.785	7.74326	21.785	7.74068
21.79	7.77609	21.79	7.62582
21.795	7.80058	21.795	7.5395
21.8	7.81882	21.8	7.47458
21.805	7.83238	21.805	7.42572
21.81	7.84242	21.81	7.3889
21.815	7.84982	21.815	7.3611
21.82	7.85524	21.82	7.34008
21.825	7.85918	21.825	7.32414
21.83	7.86201	21.83	7.31201
21.835	7.864	21.835	7.30274
21.84	7.86537	21.84	7.29561
21.845	7.86627	21.845	7.29009
21.85	9.53221	21.85	8.95117
21.855	9.13067	21.855	8.54593
21.86	8.82941	21.86	8.24184
21.865	8.60335	21.865	8.01362
21.87	8.19516	21.87	8.08084
21.875	8.13032	21.875	7.88968
21.88	8.08158	21.88	7.74616
21.885	7.65797	21.885	8.02532
21.89	7.72202	21.89	7.85266
21.895	7.76995	21.895	7.72301
21.9	7.80578	21.9	7.62562
21.905	7.83255	21.905	7.55242
21.91	7.85252	21.91	7.49737
21.915	7.86739	21.915	7.45592
21.92	7.87843	21.92	7.42468
21.925	7.8866	21.925	7.4011
21.93	7.89262	21.93	7.38326
21.935	7.89702	21.935	7.36972
21.94	7.90022	21.94	7.35941
21.945	7.9025	21.945	7.35152
21.95	7.90411	21.95	7.34545
21.955	7.90521	21.955	7.34075
21.96	8.29287	21.96	6.95011
21.965	8.20164	21.965	7.03885
21.97	8.1331	21.97	7.10525
21.975	7.69465	21.975	7.54184
21.98	7.74757	21.98	7.48726
21.985	7.78714	21.985	7.44617
21.99	7.81672	21.99	7.4152
21.995	7.83879	21.995	7.39181
22	7.85523	22	7.37412
22.005	7.86746	22.005	7.36069
22.01	7.25104	22.01	7.97595
22.015	7.41188	22.015	7.81397
22.02	8.81086	22.02	9.74467
22.025	8.97792	22.025	8.77285
22.03	8.72125	22.03	8.42572
22.035	8.52867	22.035	8.16524
22.04	8.38414	22.04	7.96974
22.045	8.27565	22.045	7.82299
22.05	8.19419	22.05	7.71278
22.055	8.13301	22.055	7.63
22.06	8.08703	22.06	7.56777
22.065	8.05245	22.065	7.52097
22.07	8.02643	22.07	7.48573
22.075	8.00682	22.075	7.45917
22.08	7.60508	22.08	7.82605
22.085	7.68555	22.085	7.71922
22.09	7.7458	22.09	7.63896
22.095	7.40396	22.095	7.96558
22.1	7.52935	22.1	7.82854
22.105	7.62331	22.105	7.72563
22.11	7.69368	22.11	7.64831
22.115	8.13332	22.115	7.20323
22.12	8.08109	22.12	7.25116
22.125	8.04183	22.125	7.28697
22.13	8.01229	22.13	7.31369
22.135	7.99004	22.135	7.3336
22.14	7.97327	22.14	7.3484
22.145	7.9606	22.145	7.35936
22.15	7.951	22.15	7.36744
22.155	7.94372	22.155	7.37337
22.16	7.93816	22.16	7.37769
22.165	7.9339	22.165	7.38078
22.17	7.93062	22.17	7.38297
22.175	7.92807	22.175	7.38448
22.18	7.53911	22.18	7.77242
22.185	7.62917	22.185	7.68138
22.19	7.69663	22.19	7.61296
22.195	7.74713	22.195	7.56151
22.2	7.39796	22.2	7.90974
22.205	7.90481	22.205	7.40196
22.21	7.90299	22.21	7.40286
22.215	7.90154	22.215	7.4034
22.22	7.90035	22.22	7.40366
22.225	7.89938	22.225	7.40373
22.23	7.89855	22.23	7.40364
22.235	7.89784	22.235	7.40345
22.24	7.89722	22.24	7.40316
22.245	7.89666	22.245	7.40281
22.25	9.56155	22.25	9.06781
22.255	8.77231	22.255	9.0525
22.26	8.56216	22.26	8.65904
22.265	8.40449	22.265	8.36382
22.27	8.28616	22.27	8.1423
22.275	8.19734	22.275	7.97604
22.28	8.13065	22.28	7.85122
22.285	8.08057	22.285	7.7575
22.29	8.04293	22.29	7.68709
22.295	8.01463	22.295	7.63417
22.3	7.99334	22.3	7.59436
22.305	7.97729	22.305	7.56439
22.31	7.96519	22.31	7.5418
22.315	7.95604	22.315	7.52473
22.32	7.9491	22.32	7.51182
22.325	7.94383	22.325	7.50202
22.33	7.93981	22.33	7.49456
22.335	7.93671	22.335	7.48884
22.34	7.54738	22.34	7.87139
22.345	7.63717	22.345	7.77631
22.35	7.70444	22.35	7.70489
22.355	7.75482	22.355	7.65121
22.36	7.79254	22.36	7.61083
22.365	7.82075	22.365	7.58044
22.37	7.84184	22.37	7.55752
22.375	7.85759	22.375	7.54022
22.38	7.86932	22.38	7.52713
22.385	7.87805	22.385	7.51719
22.39	7.88453	22.39	7.50963
22.395	7.88932	22.395	7.50384
22.4	7.89284	22.4	7.49938
22.405	7.8954	22.405	7.49592
22.41	7.89725	22.41	7.49321
22.415	7.89857	22.415	7.49106
22.42	7.89949	22.42	7.48933
22.425	7.90011	22.425	7.48792
22.43	7.9005	22.43	7.48674
22.435	7.90072	22.435	7.48575
22.44	7.90081	22.44	7.48488
22.445	7.90081	22.445	7.48412
22.45	7.90074	22.45	7.48343
22.455	7.51367	22.455	7.86975
22.46	7.60515	22.46	7.7775
22.465	7.6737	22.465	7.7082
22.47	7.72504	22.47	7.65611
22.475	7.76347	22.475	7.61693
22.48	7.79222	22.48	7.58742
22.485	7.81371	22.485	7.56518
22.49	7.82976	22.49	7.54838
22.495	7.84172	22.495	7.53567
22.5	7.85062	22.5	7.52602
22.505	7.85723	22.505	7.51866
22.51	7.86211	22.51	7.51303
22.515	7.8657	22.515	7.50869
22.52	7.86832	22.52	7.50532
22.525	7.87021	22.525	7.50268
22.53	7.87156	22.53	7.50058
22.535	7.8725	22.535	7.49889
22.54	7.87313	22.54	7.49751
22.545	7.87354	22.545	7.49635
22.55	7.87377	22.55	7.49537
22.555	7.87387	22.555	7.49452
22.56	7.87387	22.56	7.49377
22.565	7.87381	22.565	7.49308
22.57	7.87368	22.57	7.49246
22.575	7.87352	22.575	7.49187
22.58	8.4988	22.58	6.86584
22.585	7.71894	22.585	7.64495
22.59	7.75725	22.59	7.60589
22.595	8.41139	22.595	6.951
22.6	8.27865	22.6	7.08299
22.605	8.17902	22.605	7.18187
22.61	8.10423	22.61	7.25591
22.615	8.04807	22.615	7.31132
22.62	8.00588	22.62	7.35276
22.625	7.58722	22.625	7.77067
22.63	7.65501	22.63	7.70213
22.635	7.70579	22.635	7.6506
22.64	7.74381	22.64	7.61184
22.645	7.77224	22.645	7.58265
22.65	7.7935	22.65	7.56064
22.655	7.80938	22.655	7.54402
22.66	7.82121	22.66	7.53143
22.665	7.83001	22.665	7.52188
22.67	7.83655	22.67	7.51459
22.675	7.84138	22.675	7.50901
22.68	7.84493	22.68	7.50471
22.685	7.84752	22.685	7.50137
22.69	7.84939	22.69	7.49875
22.695	7.85073	22.695	7.49666
22.7	7.85166	22.7	7.49498
22.705	7.85228	22.705	7.49361
22.71	7.85268	22.71	7.49246
22.715	7.85291	22.715	7.49148
22.72	7.85301	22.72	7.49063
22.725	7.85302	22.725	7.48987
22.73	7.85295	22.73	7.48919
22.735	7.85283	22.735	7.48856
22.74	7.85267	22.74	7.48797
22.745	7.85248	22.745	7.48741
22.75	7.85226	22.75	7.48688
22.755	7.85203	22.755	7.48636
22.76	7.85179	22.76	7.48586
22.765	7.85153	22.765	7.48536
22.77	7.85127	22.77	7.48487
22.775	7.851	22.775	7.48439
22.78	7.85073	22.78	7.48391
22.785	7.85046	22.785	7.48343
22.79	7.85018	22.79	7.48296
22.795	8.47539	22.795	6.85701
22.8	8.32095	22.8	7.0107
22.805	8.20505	22.805	7.12585
22.81	8.11805	22.81	7.21209
22.815	8.05274	22.815	7.27666
22.82	8.00368	22.82	7.32496
22.825	7.96682	22.825	7.36108
22.83	7.9391	22.83	7.38804
22.835	7.91824	22.835	7.40815
22.84	7.90253	22.84	7.42311
22.845	7.89068	22.845	7.43422
22.85	7.49477	22.85	7.82937
22.855	7.57963	22.855	7.74376
22.86	7.64321	22.86	7.67943
22.865	7.69083	22.865	7.63107
22.87	7.72647	22.87	7.59467
22.875	7.75313	22.875	7.56726
22.88	7.77306	22.88	7.54659
22.885	7.78793	22.885	7.53096
22.89	7.79902	22.89	7.51913
22.895	9.47266	22.895	9.17553
22.9	9.07695	22.9	8.76684
22.905	8.78011	22.905	8.46022
22.91	8.55743	22.91	8.23016
22.915	8.39038	22.915	8.05752
22.92	8.89051	22.92	7.30245
22.925	8.01681	22.925	7.98481
22.93	8.61024	22.93	7.24773
22.935	8.43199	22.935	7.31809
22.94	8.29825	22.94	7.37076
22.945	8.1979	22.945	7.41016
22.95	8.12258	22.95	7.43962
22.955	8.06605	22.955	7.46161
22.96	7.63665	22.96	7.86495
22.965	7.69641	22.965	7.78549
22.97	7.74119	22.97	7.72579
22.975	7.77472	22.975	7.68092
22.98	7.79982	22.98	7.64717
22.985	7.8186	22.985	7.62176
22.99	7.83263	22.99	7.6026
22.995	7.8431	22.995	7.58813
23	7.85091	23	7.57717
23.005	7.85671	23.005	7.56886
23.01	7.86102	23.01	7.56253
23.015	7.8642	23.015	7.55768
23.02	7.86653	23.02	7.55394
23.025	7.86823	23.025	7.55104
23.03	7.86946	23.03	7.54876
23.035	7.87033	23.035	7.54695
23.04	7.87093	23.04	7.5455
23.045	7.87133	23.045	7.54431
23.05	8.49706	23.05	6.91784
23.055	8.34304	23.055	7.07115
23.06	8.22748	23.06	7.18604
23.065	7.75381	23.065	7.65905
23.07	7.78037	23.07	7.63185
23.075	7.80025	23.075	7.61134
23.08	7.81511	23.08	7.59586
23.085	7.8262	23.085	7.58415
23.09	7.83447	23.09	7.57527
23.095	7.84063	23.095	7.56851
23.1	7.8452	23.1	7.56333
23.105	7.84857	23.105	7.55935
23.11	7.85106	23.11	7.55627
23.115	7.85287	23.115	7.55385
23.12	7.85418	23.12	7.55194
23.125	7.85512	23.125	7.55041
23.13	7.85577	23.13	7.54916
23.135	7.46927	23.135	7.93507
23.14	7.5612	23.14	7.84253
23.145	7.63011	23.145	7.77303
23.15	7.68174	23.15	7.7208
23.155	7.72041	23.155	7.68153
23.16	7.74937	23.16	7.65198
23.165	7.77104	23.165	7.62971
23.17	8.41272	23.17	6.98743
23.175	8.27066	23.175	7.12889
23.18	7.53859	23.18	7.86037
23.185	8.23824	23.185	7.16012
23.19	8.13966	23.19	7.25811
23.195	8.06567	23.195	7.3315
23.2	7.62319	23.2	7.77338
23.205	7.67315	23.205	7.72283
23.21	9.37596	23.21	9.35021
23.215	9.00215	23.215	8.91977
23.22	8.72177	23.22	8.59686
23.225	8.51145	23.225	8.35459
23.23	8.35368	23.23	8.17281
23.235	8.23533	23.235	8.03639
23.24	8.14654	23.24	7.934
23.245	7.69296	23.245	8.24406
23.25	7.73462	23.25	8.09467
23.255	7.76584	23.255	7.98254
23.26	7.78922	23.26	7.89836
23.265	7.80673	23.265	7.83514
23.27	7.81983	23.27	7.78765
23.275	7.82963	23.275	7.75194
23.28	7.83695	23.28	7.72508
23.285	7.84242	23.285	7.70486
23.29	7.84648	23.29	7.6896
23.295	7.84951	23.295	7.67808
23.3	7.4648	23.3	8.0563
23.305	7.5581	23.305	7.95802
23.31	8.25353	23.31	7.25875
23.315	8.15181	23.315	7.35749
23.32	8.07548	23.32	7.43145
23.325	8.01821	23.325	7.48685
23.33	7.97523	23.33	7.52831
23.335	7.94297	23.335	7.55932
23.34	7.91875	23.34	7.5825
23.345	7.90055	23.345	7.5998
23.35	7.88688	23.35	7.61269
23.355	7.87659	23.355	7.62227
23.36	7.48191	23.36	8.01632
23.365	7.56773	23.365	7.92991
23.37	7.63207	23.37	7.86502
23.375	7.6803	23.375	7.81627
23.38	7.71644	23.38	7.77963
23.385	7.74352	23.385	7.75206
23.39	7.7638	23.39	7.7313
23.395	7.77898	23.395	7.71565
23.4	7.79034	23.4	7.70383
23.405	7.79884	23.405	7.69487
23.41	7.80518	23.41	7.68808
23.415	7.80991	23.415	7.6829
23.42	7.81343	23.42	7.67893
23.425	7.81604	23.425	7.67587
23.43	7.81797	23.43	7.67349
23.435	7.81939	23.435	7.67163
23.44	7.82043	23.44	7.67014
23.445	7.82118	23.445	7.66895
23.45	7.43477	23.45	8.05492
23.455	7.91374	23.455	7.5755
23.46	7.50414	23.46	7.98466
23.465	7.96571	23.465	7.52264
23.47	7.54306	23.47	7.94485
23.475	7.60791	23.475	7.87956
23.48	7.65651	23.48	7.83051
23.485	7.69294	23.485	7.79364
23.49	8.34571	23.49	7.14042
23.495	7.58651	23.495	7.89918
23.5	7.64036	23.5	7.84489
23.505	8.3062	23.505	7.17861
23.51	8.18228	23.51	7.30209
23.515	7.46383	23.515	8.02009
23.52	8.17372	23.52	7.30976
23.525	8.08283	23.525	7.4002
23.53	7.38917	23.53	8.09342
23.535	7.87911	23.535	7.60304
23.54	8.1032	23.54	7.3785
23.545	8.02984	23.545	7.45142
23.55	7.73626	23.55	7.74456
23.555	8.38293	23.555	7.09744
23.56	7.61916	23.56	7.86077
23.565	8.29505	23.565	7.18444
23.57	8.17867	23.57	7.30037
23.575	7.46588	23.575	8.01272
23.58	8.18001	23.58	7.29814
23.585	8.09231	23.585	7.3854
23.59	8.02651	23.59	7.45076
23.595	7.97714	23.595	7.49969
23.6	7.94008	23.6	7.53631
23.605	7.91225	23.605	7.56369
23.61	7.89136	23.61	7.58414
23.615	7.87566	23.615	7.59939
23.62	7.86387	23.62	7.61075
23.625	7.85499	23.625	7.61918
23.63	7.84831	23.63	7.62542
23.635	7.84327	23.635	7.63002
23.64	7.83946	23.64	7.63338
23.645	7.83658	23.645	7.63582
23.65	7.83439	23.65	7.63756
23.655	7.83273	23.655	7.63878
23.66	7.83145	23.66	7.63962
23.665	7.83046	23.665	7.64016
23.67	7.8297	23.67	7.64048
23.675	7.8291	23.675	7.64064
23.68	7.82862	23.68	7.64067
23.685	7.82824	23.685	7.64061
23.69	7.82792	23.69	7.64049
23.695	7.82766	23.695	7.64031
23.7	7.82744	23.7	7.64009
23.705	7.82724	23.705	7.63984
23.71	7.82707	23.71	7.63957
23.715	7.82691	23.715	7.63928
23.72	8.21372	23.72	7.25203
23.725	8.12193	23.725	7.34338
23.73	8.05306	23.73	7.41181
23.735	8.00138	23.735	7.46304
23.74	7.96259	23.74	7.50138
23.745	7.93348	23.745	7.53006
23.75	7.91162	23.75	7.55148
23.755	7.89519	23.755	7.56746
23.76	7.88285	23.76	7.57936
23.765	7.87356	23.765	7.5882
23.77	7.86657	23.77	7.59475
23.775	7.8613	23.775	7.59957
23.78	7.85732	23.78	7.60311
23.785	7.85431	23.785	7.60568
23.79	7.85203	23.79	7.60752
23.795	7.85029	23.795	7.60882
23.8	7.84895	23.8	7.6097
23.805	7.84793	23.805	7.61029
23.81	7.84713	23.81	7.61064
23.815	7.84651	23.815	7.61082
23.82	7.22054	23.82	8.23635
23.825	7.99978	23.825	7.45666
23.83	7.33543	23.83	8.12057
23.835	8.0859	23.835	7.36966
23.84	8.02545	23.84	7.42966
23.845	7.98009	23.845	7.47459
23.85	7.32056	23.85	8.13367
23.855	8.07463	23.855	7.37915
23.86	8.01689	23.86	7.43645
23.865	7.34808	23.865	8.10482
23.87	7.46971	23.87	7.98274
23.875	8.18639	23.875	7.26562
23.88	7.86207	23.88	7.5895
23.885	7.86021	23.885	7.59092
23.89	8.48426	23.89	6.96642
23.895	7.70353	23.895	7.74671
23.9	7.74122	23.9	7.70858
23.905	7.76946	23.905	7.67989
23.91	7.79061	23.91	7.6583
23.915	7.80645	23.915	7.64202
23.92	7.8183	23.92	7.62972
23.925	7.82716	23.925	7.62042
23.93	7.83378	23.93	7.61336
23.935	7.83871	23.935	7.60798
23.94	7.84239	23.94	7.60386
23.945	7.84511	23.945	7.60069
23.95	7.84713	23.95	7.59823
23.955	7.84862	23.955	7.5963
23.96	7.84971	23.96	7.59477
23.965	7.85049	23.965	7.59354
23.97	7.85106	23.97	7.59253
23.975	7.85145	23.975	7.5917
23.98	7.85172	23.98	7.59099
23.985	8.23884	23.985	7.20342
23.99	8.14729	23.99	7.29453
23.995	8.0786	23.995	7.36278
24	8.02705	24	7.41388
24.005	7.98836	24.005	7.45213
24.01	7.95932	24.01	7.48073
24.015	7.93751	24.015	7.50209
24.02	7.92112	24.02	7.51804
24.025	7.90881	24.025	7.52991
24.03	7.89954	24.03	7.53873
24.035	7.89257	24.035	7.54526
24.04	7.88731	24.04	7.55008
24.045	7.88333	24.045	7.55361
24.05	7.88033	24.05	7.55617
24.055	7.87804	24.055	7.55801
24.06	8.26325	24.06	7.17236
24.065	8.17026	24.065	7.26491
24.07	8.1005	24.07	7.33423
24.075	8.04814	24.075	7.38614
24.08	8.00885	24.08	7.42499
24.085	7.97935	24.085	7.45405
24.09	7.9572	24.09	7.47576
24.095	7.94056	24.095	7.49195
24.1	7.92805	24.1	7.50402
24.105	7.91864	24.105	7.51298
24.11	7.91156	24.11	7.51962
24.115	7.90622	24.115	7.52452
24.12	7.90219	24.12	7.52811
24.125	7.89913	24.125	7.53072
24.13	7.89682	24.13	7.53259
24.135	7.89505	24.135	7.53392
24.14	7.8937	24.14	7.53483
24.145	7.89266	24.145	7.53542
24.15	7.89185	24.15	7.53579
24.155	7.89122	24.155	7.53598
24.16	7.89071	24.16	7.53604
24.165	7.89031	24.165	7.536
24.17	7.88998	24.17	7.53589
24.175	7.8897	24.175	7.53572
24.18	7.88947	24.18	7.53551
24.185	7.26378	24.185	8.16075
24.19	8.04324	24.19	7.38085
24.195	8.00454	24.195	7.41911
24.2	7.35	24.2	8.0732
24.205	7.86929	24.205	7.55347
24.21	7.87686	24.21	7.54546
24.215	7.88252	24.215	7.53936
24.22	7.88672	24.22	7.53471
24.225	7.88985	24.225	7.53114
24.23	7.89217	24.23	7.52838
24.235	7.89388	24.235	7.52622
24.24	7.89513	24.24	7.52453
24.245	7.89605	24.245	7.52317
24.25	7.8967	24.25	7.52207
24.255	7.89717	24.255	7.52117
24.26	7.89748	24.26	7.52041
24.265	7.89769	24.265	7.51975
24.27	7.89782	24.27	7.51918
24.275	7.89789	24.275	7.51867
24.28	7.89791	24.28	7.5182
24.285	7.8979	24.285	7.51777
24.29	9.56326	24.29	9.18276
24.295	9.16138	24.295	8.78055
24.3	8.85996	24.3	8.47883
24.305	8.63388	24.305	8.25247
24.31	8.46432	24.31	8.08264
24.315	8.33713	24.315	7.95521
24.32	8.24174	24.32	7.85957
24.325	8.17018	24.325	7.78777
24.33	8.1165	24.33	7.73387
24.335	8.07623	24.335	7.69337
24.34	8.04602	24.34	7.66294
24.345	8.02336	24.345	7.64005
24.35	8.00635	24.35	7.62282
24.355	7.99358	24.355	7.60984
24.36	7.984	24.36	7.60004
24.365	7.9768	24.365	7.59262
24.37	7.97139	24.37	7.587
24.375	7.96733	24.375	7.58272
24.38	7.96427	24.38	7.57944
24.385	7.96197	24.385	7.57692
24.39	7.96023	24.39	7.57497
24.395	7.95892	24.395	7.57344
24.4	7.95792	24.4	7.57224
24.405	7.95717	24.405	7.57127
24.41	7.9566	24.41	7.57048
24.415	7.95615	24.415	7.56982
24.42	7.95581	24.42	7.56927
24.425	7.95555	24.425	7.56879
24.43	7.95534	24.43	7.56837
24.435	7.95518	24.435	7.56799
24.44	7.95504	24.44	7.56764
24.445	7.95494	24.445	7.56731
24.45	7.95484	24.45	7.56701
24.455	7.95477	24.455	7.56671
24.46	7.9547	24.46	7.56643
24.465	7.95464	24.465	7.56616
24.47	7.95458	24.47	7.56589
24.475	7.95453	24.475	7.56562
24.48	7.95449	24.48	7.56536
24.485	7.95444	24.485	7.5651
24.49	6.289	24.49	5.89945
24.495	6.69079	24.495	6.30102
24.5	6.9921	24.5	6.60211
24.505	7.21805	24.505	6.82785
24.51	6.76201	24.51	7.62255
24.515	7.6687	24.515	6.96975
24.52	7.33847	24.52	7.49028
24.525	6.84715	24.525	8.12421
24.53	7.48885	24.53	7.58936
24.535	7.58824	24.535	7.57
24.54	7.2758	24.54	7.94235
24.545	7.4233	24.545	7.83967
24.55	7.5339	24.55	7.76257
24.555	7.61682	24.555	7.70467
24.56	7.67899	24.56	7.66116
24.565	8.11252	24.565	7.2415
24.57	8.05578	24.57	7.30854
24.575	8.0132	24.575	7.35874
24.58	7.98123	24.58	7.39631
24.585	7.95722	24.585	7.4244
24.59	7.93919	24.59	7.44539
24.595	7.53869	24.595	7.848
24.6	8.00709	24.6	7.38106
24.605	7.9765	24.605	7.41264
24.61	7.56658	24.61	7.8232
24.615	7.64098	24.615	7.74916
24.62	8.08369	24.62	7.30661
24.625	7.64689	24.625	7.74343
24.63	7.70112	24.63	7.68909
24.635	8.12871	24.635	7.26131
24.64	7.68056	24.64	7.70921
24.645	7.72629	24.645	7.66318
24.65	8.1475	24.65	7.24164
24.655	8.08151	24.655	7.30726
24.66	8.03199	24.66	7.3564
24.665	7.99482	24.665	7.39317
24.67	7.96692	24.67	7.42067
24.675	7.94596	24.675	7.44121
24.68	7.93021	24.68	7.45654
24.685	7.91837	24.685	7.46795
24.69	7.90946	24.69	7.47643
24.695	7.90274	24.695	7.4827
24.7	7.89768	24.7	7.48733
24.705	7.89385	24.705	7.49072
24.71	7.89095	24.71	7.49318
24.715	7.26327	24.715	8.12042
24.72	8.04123	24.72	7.34202
24.725	7.37591	24.725	8.0069
24.73	8.12565	24.73	7.25672
24.735	7.43917	24.735	7.94275
24.74	7.54755	24.74	7.83393
24.745	7.62881	24.745	7.75223
24.75	7.68972	24.75	7.69087
24.755	7.73538	24.755	7.64478
24.76	7.76958	24.76	7.61012
24.765	7.79521	24.765	7.58406
24.77	7.8144	24.77	7.56442
24.775	8.21571	24.775	7.16267
24.78	8.13479	24.78	7.24314
24.785	8.07408	24.785	7.30342
24.79	8.02851	24.79	7.34854
24.795	7.9943	24.795	7.3823
24.8	7.96862	24.8	7.40755
24.805	7.94932	24.805	7.4264
24.81	7.93482	24.81	7.44045
24.815	7.92392	24.815	7.45092
24.82	7.91571	24.82	7.45869
24.825	7.90952	24.825	7.46443
24.83	7.90485	24.83	7.46866
24.835	7.90131	24.835	7.47175
24.84	7.89863	24.84	7.47399
24.845	7.89659	24.845	7.47559
24.85	7.89503	24.85	7.4767
24.855	7.89383	24.855	7.47746
24.86	7.8929	24.86	7.47795
24.865	7.89217	24.865	7.47824
24.87	7.89159	24.87	7.47837
24.875	7.89113	24.875	7.47839
24.88	7.89075	24.88	7.47833
24.885	7.89043	24.885	7.4782
24.89	7.89017	24.89	7.47802
24.895	7.88994	24.895	7.47781
24.9	7.88974	24.9	7.47757
24.905	7.88955	24.905	7.47731
24.91	7.88939	24.91	7.47703
24.915	7.88923	24.915	7.47674
24.92	7.88908	24.92	7.47645
24.925	7.88894	24.925	7.47615
24.93	7.8888	24.93	7.47584
24.935	8.27562	24.935	7.08858
24.94	7.79689	24.94	7.56687
24.945	7.81967	24.945	7.54364
24.95	8.22368	24.95	7.13919
24.955	8.14479	24.955	7.21764
24.96	8.08559	24.96	7.2764
24.965	8.04116	24.965	7.32038
24.97	8.0078	24.97	7.35329
24.975	7.98276	24.975	7.3779
24.98	7.96394	24.98	7.39627
24.985	7.9498	24.985	7.40996
24.99	7.93917	24.99	7.42016
24.995	7.93116	24.995	7.42772
25	21.0744	25	20.5826
25.005	21.0873	25.005	20.6042
25.01	21.1013	25.01	20.6247
25.015	21.1162	25.015	20.6443
25.02	21.1316	25.02	20.6633
25.025	21.1476	25.025	20.6818
25.03	21.1638	25.03	20.7
25.035	21.1804	25.035	20.7179
25.04	21.1971	25.04	20.7356
25.045	21.214	25.045	20.7532
25.05	21.231	25.05	20.7707
25.055	21.2481	25.055	20.7881
25.06	20.8783	25.06	21.1923
25.065	21.3741	25.065	20.731
25.07	20.9814	25.07	21.1581
25.075	21.0732	25.075	21.1008
25.08	21.1463	25.08	21.0622
25.085	21.2055	25.085	21.0375
25.09	21.2542	25.09	21.0232
25.095	21.295	25.095	21.0168
25.1	21.33	25.1	21.0163
25.105	19.6952	25.105	19.3548
25.11	20.1243	25.11	19.7638
25.115	20.4504	25.115	20.0749
25.12	21.3248	25.12	19.6869
25.125	21.3617	25.125	20.0235
25.13	19.7282	25.13	18.6148
25.135	18.106	25.135	17.935
25.14	18.9263	25.14	18.6983
25.145	18.5059	25.145	16.9842
25.15	19.2225	25.15	17.977
25.155	18.0988	25.155	17.0604
25.16	18.9112	25.16	18.028
25.165	19.5247	25.165	18.7579
25.17	18.3237	25.17	17.6441
25.175	17.4126	25.175	16.7984
25.18	18.3844	25.18	17.8192
25.185	17.4521	25.185	16.9236
25.19	17.368	25.19	15.616
25.195	17.9497	25.195	17.3005
25.2	17.1067	25.2	16.5207
25.205	16.4641	25.205	15.9255
25.21	15.9717	25.21	15.4686
25.215	16.2175	25.215	14.49
25.22	15.7682	25.22	14.3689
25.225	17.4731	25.225	15.546
25.23	16.3216	25.23	15.5362
25.235	14.551	25.235	13.0842
25.24	14.7201	25.24	13.0289
25.245	14.3565	25.245	13.4567
25.25	11.2223	25.25	9.95628
25.255	13.9739	25.255	12.142
25.26	13.9942	25.26	12.5015
25.265	10.6681	25.265	9.42976
25.27	12.09	25.27	9.79151
25.275	11.8971	25.275	11.3008
25.28	10.0466	25.28	7.45556
25.285	10.5576	25.285	9.25466
25.29	11.0735	25.29	10.4498
25.295	7.94574	25.295	4.84677
25.3	9.70964	25.3	9.74912
25.305	10.2029	25.305	7.60116
25.31	7.01001	25.31	6.17134
25.315	8.52943	25.315	7.76645
25.32	5.28729	25.32	3.33006
25.325	6.54855	25.325	6.19308
25.33	3.73597	25.33	2.08425
25.335	5.3193	25.335	5.19283
25.34	2.50965	25.34	1.50662
25.345	5.58744	25.345	3.4397
25.35	-0.0258286	25.35	-0.534657
25.355	2.97969	25.355	2.45344
25.36	5.22244	25.36	4.68305
25.365	2.93681	25.365	3.63848
25.37	6.14861	25.37	4.50961
25.375	6.91535	25.375	6.78202
25.38	3.10598	25.38	2.8553
25.385	5.19004	25.385	4.8513
25.39	6.74149	25.39	6.33663
25.395	3.28421	25.395	2.05581
25.4	4.62488	25.4	4.79346
25.405	6.86741	25.405	5.58616
25.41	4.34498	25.41	3.69991
25.415	4.31915	25.415	3.66835
25.42	5.93883	25.42	5.28367
25.425	5.47635	25.425	4.81786
25.43	6.76848	25.43	6.10744
25.435	7.72567	25.435	7.06266
25.44	3.19691	25.44	3.00943
25.445	4.98241	25.445	4.66871
25.45	3.36567	25.45	2.18335
25.455	4.43546	25.455	4.61632
25.46	5.84898	25.46	5.80561
25.465	3.95314	25.465	2.96767
25.47	5.439	25.47	4.51062
25.475	6.54119	25.475	5.65558
25.48	3.39934	25.48	3.79672
25.485	4.95574	25.485	5.06875
25.49	6.49768	25.49	5.62348
25.495	4.31611	25.495	2.69128
25.5	5.34894	25.5	4.40189
25.505	6.35258	25.505	5.43099
25.51	3.76209	25.51	2.85956
25.515	5.49549	25.515	3.83331
25.52	8.06658	25.52	6.59834
25.525	4.76219	25.525	3.91642
25.53	6.20149	25.53	4.56581
25.535	3.94268	25.535	1.70437
25.54	5.15586	25.54	3.22926
25.545	6.05311	25.545	4.36023
25.55	4.80945	25.55	3.76889
25.555	7.80864	25.555	6.00057
25.56	8.01257	25.56	6.39255
25.565	8.1528	25.565	6.67377
25.57	8.63217	25.57	6.48495
25.575	8.59708	25.575	6.71239
25.58	6.65404	25.58	5.44328
25.585	7.07625	25.585	5.88807
25.59	9.43241	25.59	7.48723
25.595	7.87548	25.595	5.35234
25.6	7.96393	25.6	5.77102
25.605	8.01738	25.605	6.07208
25.61	6.14061	25.61	4.85806
25.615	8.27778	25.615	7.00942
25.62	5.65991	25.62	2.85437
25.625	6.6085	25.625	3.4036
25.63	8.59043	25.63	5.8497
25.635	6.50903	25.635	4.59346
25.64	6.82721	25.64	5.04764
25.645	9.1051	25.645	6.6536
25.65	8.76766	25.65	6.57592
25.655	8.50148	25.655	6.5045
25.66	9.95411	25.66	8.10317
25.665	8.10111	25.665	5.58576
25.67	10.0196	25.67	6.99571
25.675	9.02553	25.675	7.15788
25.68	8.41016	25.68	7.12295
25.685	9.84222	25.685	8.5075
25.69	10.9176	25.69	9.54717
25.695	8.78153	25.695	6.61044
25.7	10.1007	25.7	8.09277
25.705	11.0913	25.705	9.20573
25.71	10.1701	25.71	8.37628
25.715	11.5183	25.715	9.01934
25.72	10.4835	25.72	8.2193
25.725	9.69402	25.725	7.60595
25.73	9.08864	25.73	7.1326
25.735	10.2867	25.735	8.42963
25.74	9.52099	25.74	7.73814
25.745	8.54644	25.745	7.59309
25.75	10.2364	25.75	8.3675
25.755	9.07077	25.755	8.05282
25.76	10.2304	25.76	9.08693
25.765	9.43593	25.765	8.1982
25.77	10.492	25.77	9.18361
25.775	10.8983	25.775	10.3107
25.78	9.92054	25.78	9.10979
25.785	10.8392	25.785	9.86107
25.79	10.4894	25.79	8.13469
25.795	10.8688	25.795	9.50205
25.8	9.87082	25.8	8.48134
25.805	10.3874	25.805	9.75465
25.81	9.4923	25.81	8.66338
25.815	10.4729	25.815	9.49681
25.82	11.2094	25.82	10.1229
25.825	11.3759	25.825	10.9804
25.83	10.2182	25.83	9.5772
25.835	11.0019	25.835	10.1767
25.84	11.5906	25.84	10.6273
25.845	10.6063	25.845	9.06227
25.85	10.2662	25.85	10.7942
25.855	11.6426	25.855	10.4635
25.86	10.0004	25.86	9.56118
25.865	8.75009	25.865	8.87598
25.87	9.84607	25.87	9.63202
25.875	8.22972	25.875	9.30846
25.88	9.43302	25.88	9.95385
25.885	9.94948	25.885	10.8257
25.89	9.29276	25.89	9.19473
25.895	9.82368	25.895	10.2516
25.9	8.55231	25.9	9.38482
25.905	9.24549	25.905	10.3916
25.91	8.0958	25.91	9.48715
25.915	9.5057	25.915	9.84017
25.92	8.6572	25.92	8.68178
25.925	8.89868	25.925	10.2386
25.93	8.17899	25.93	8.97788
25.935	8.90401	25.935	10.071
25.94	7.77813	25.94	9.23129
25.945	9.20584	25.945	9.63279
25.95	10.036	25.95	10.1761
25.955	8.60717	25.955	9.30591
25.96	9.56908	25.96	9.92304
25.965	9.90437	25.965	10.7736
25.97	8.48616	25.97	9.75196
25.975	9.0691	25.975	10.6424
25.98	8.84904	25.98	8.63829
25.985	9.32543	25.985	9.79701
25.99	9.67841	25.99	10.6718
25.995	8.27343	25.995	9.66837
26	7.58781	26	8.5201
26.005	8.33827	26.005	9.69741
26.01	7.85684	26.01	8.29527
26.015	8.90597	26.015	9.13663
26.02	9.30657	26.02	10.1553
26.025	8.32421	26.025	8.87262
26.03	8.85207	26.03	9.94912
26.035	7.96512	26.035	8.70987
26.04	9.57696	26.04	8.80647
26.045	9.77629	26.045	9.88975
26.05	8.64293	26.05	8.65557
26.055	9.05751	26.055	9.76838
26.06	9.75096	26.06	10.2217
26.065	10.2717	26.065	10.5623
26.07	8.99752	26.07	9.15297
26.075	9.69341	26.075	9.74744
26.08	9.82901	26.08	10.5808
26.085	10.3132	26.085	10.8246
26.09	9.63708	26.09	8.71707
26.095	10.1582	26.095	9.41118
26.1	10.5497	26.1	9.93232
26.105	10.8439	26.105	10.3237
26.11	9.01284	26.11	9.33942
26.115	9.6729	26.115	9.87074
26.12	9.12862	26.12	7.9789
26.125	8.08321	26.125	7.1693
26.13	8.95061	26.13	8.2135
26.135	9.60172	26.135	8.99715
26.14	10.0906	26.14	9.58539
26.145	10.4578	26.145	10.0271
26.15	9.06842	26.15	8.69344
26.155	9.67779	26.155	9.34459
26.16	10.1354	26.16	9.83344
26.165	10.4791	26.165	10.2006
26.17	9.69748	26.17	8.1855
26.175	10.1394	26.175	8.94883
26.18	10.4714	26.18	9.5218
26.185	9.05553	26.185	8.28659
26.19	9.64501	26.19	9.01151
26.195	10.0876	26.195	9.55565
26.2	10.4201	26.2	9.9642
26.205	9.00454	26.205	8.60566
26.21	9.59426	26.21	9.23807
26.215	10.037	26.215	9.7128
26.22	10.9951	26.22	9.44379
26.225	9.42542	26.225	8.20033
26.23	9.89954	26.23	8.91904
26.235	10.2556	26.235	9.45847
26.24	10.5231	26.24	9.86345
26.245	9.05879	26.245	8.50219
26.25	9.61191	26.25	9.13252
26.255	10.0272	26.255	9.60566
26.26	10.3391	26.26	9.96089
26.265	10.5735	26.265	10.2277
26.27	10.7497	26.27	10.4282
26.275	9.21692	26.275	8.91356
26.28	9.71865	26.28	9.42883
26.285	10.7209	26.285	9.19018
26.29	10.8497	26.29	9.63482
26.295	9.28131	26.295	8.30327
26.3	9.75635	26.3	8.95585
26.305	10.113	26.305	9.44563
26.31	10.381	26.31	9.81331
26.315	10.5823	26.315	10.0894
26.32	10.7337	26.32	10.2968
26.325	9.1823	26.325	8.78735
26.33	9.67001	26.33	9.30646
26.335	10.0362	26.335	9.69611
26.34	10.3112	26.34	9.98868
26.345	10.5179	26.345	10.2084
26.35	10.6732	26.35	10.3736
26.355	9.75026	26.355	8.20688
26.36	10.086	26.36	8.85633
26.365	8.67279	26.365	7.67833
26.37	8.87718	26.37	8.83295
26.375	9.41269	26.375	9.31734
26.38	9.81467	26.38	9.68092
26.385	10.1165	26.385	9.95389
26.39	10.3432	26.39	10.1589
26.395	8.84825	26.395	8.64756
26.4	9.37823	26.4	9.16521
26.405	9.77605	26.405	9.55372
26.41	10.0747	26.41	9.84536
26.415	9.91215	26.415	10.4513
26.42	10.1724	26.42	10.5242
26.425	10.3679	26.425	10.5791
26.43	8.84951	26.43	8.95515
26.435	9.3619	26.435	9.38834
26.44	9.74651	26.44	9.71347
26.445	10.0353	26.445	9.95758
26.45	10.4907	26.45	9.90237
26.455	8.92578	26.455	8.43722
26.46	9.40328	26.46	8.98948
26.465	9.7617	26.465	9.4039
26.47	10.0308	26.47	9.71495
26.475	9.84599	26.475	10.3354
26.48	8.42414	26.48	8.75372
26.485	9.00892	26.485	9.21855
26.49	9.44779	26.49	9.56739
26.495	9.77721	26.495	9.82923
26.5	10.0246	26.5	10.0258
26.505	10.2103	26.505	10.1735
26.51	10.35	26.51	10.2844
26.515	8.4026	26.515	9.08938
26.52	8.9751	26.52	9.46232
26.525	9.40473	26.525	9.74222
26.53	9.72721	26.53	9.95234
26.535	9.96933	26.535	10.1101
26.54	10.1512	26.54	10.2286
26.545	10.2878	26.545	10.3177
26.55	8.33821	26.55	9.10627
26.555	8.909	26.555	9.46688
26.56	9.33733	26.56	9.73751
26.565	9.65882	26.565	9.94065
26.57	9.90017	26.57	10.0932
26.575	10.0814	26.575	10.2077
26.58	10.2176	26.58	10.2938
26.585	10.32	26.585	10.3586
26.59	10.397	26.59	10.4073
26.595	10.455	26.595	10.444
26.6	8.83334	26.6	8.80634
26.605	9.26821	26.605	9.22912
26.61	9.59458	26.61	9.54636
26.615	9.83957	26.615	9.78444
26.62	10.0235	26.62	9.96315
26.625	10.1617	26.625	10.0973
26.63	10.2656	26.63	10.1981
26.635	10.3437	26.635	10.2739
26.64	10.4025	26.64	10.3308
26.645	10.4468	26.645	10.3737
26.65	8.81491	26.65	8.74061
26.655	9.24205	26.655	9.16682
26.66	9.56261	26.66	9.48661
26.665	9.80322	26.665	9.72658
26.67	9.98388	26.67	9.90669
26.675	10.1196	26.675	10.0419
26.68	10.2216	26.68	10.1435
26.685	10.2982	26.685	10.2197
26.69	10.3559	26.69	10.2771
26.695	10.3994	26.695	10.3202
26.7	10.4322	26.7	10.3527
26.705	10.457	26.705	10.3772
26.71	10.4758	26.71	10.3957
26.715	10.4902	26.715	10.4098
26.72	10.5011	26.72	10.4204
26.725	8.84408	26.725	8.76313
26.73	9.2524	26.73	9.17117
26.735	9.55882	26.735	9.47732
26.74	10.1758	26.74	9.3201
26.745	10.2568	26.745	9.58416
26.75	10.3177	26.75	9.78232
26.755	10.3636	26.755	9.93105
26.76	10.3982	26.76	10.0427
26.765	10.4244	26.765	10.1266
26.77	10.8311	26.77	9.80264
26.775	9.08904	26.775	8.27627
26.78	9.43357	26.78	8.78248
26.785	9.69213	26.785	9.16223
26.79	9.8862	26.79	9.44713
26.795	10.0319	26.795	9.66091
26.8	10.1414	26.8	9.82133
26.805	10.6106	26.805	9.5548
26.81	10.5808	26.81	9.73686
26.815	10.5586	26.815	9.8735
26.82	10.5421	26.82	9.97607
26.825	9.90441	26.825	10.6786
26.83	10.0496	26.83	10.5823
26.835	10.5456	26.835	10.1232
26.84	10.5358	26.84	10.1609
26.845	10.5287	26.845	10.1892
26.85	8.85814	26.85	8.54514
26.855	9.25624	26.855	8.96308
26.86	9.55495	26.86	9.2766
26.865	9.77913	26.865	9.51182
26.87	9.94741	26.87	9.68831
26.875	10.0738	26.875	9.82076
26.88	10.1687	26.88	9.92017
26.885	10.24	26.885	9.9948
26.89	10.2936	26.89	10.0508
26.895	10.334	26.895	10.093
26.9	10.7513	26.9	9.73768
26.905	10.6826	26.905	9.85316
26.91	10.6312	26.91	9.93984
26.915	9.96736	26.915	10.6304
26.92	10.0929	26.92	10.5251
26.925	10.1871	26.925	10.4463
26.93	10.258	26.93	10.3872
26.935	10.3112	26.935	10.343
26.94	9.07288	26.94	8.25752
26.945	9.02632	26.945	9.1132
26.95	9.76033	26.95	8.98621
26.955	9.92909	26.955	9.27289
26.96	10.0558	26.96	9.48795
26.965	10.1509	26.965	9.64931
26.97	10.2224	26.97	9.77039
26.975	10.2761	26.975	9.86125
26.98	10.3165	26.98	9.92946
26.985	10.347	26.985	9.98067
26.99	10.3699	26.99	10.0191
26.995	10.3873	26.995	10.048
27	10.7873	27	9.68284
27.005	10.0802	27.005	10.4163
27.01	10.1732	27.01	10.3432
27.015	10.243	27.015	10.2885
27.02	10.2956	27.02	10.2475
27.025	10.3351	27.025	10.2168
27.03	10.3648	27.03	10.1938
27.035	10.3873	27.035	10.1767
27.04	10.4042	27.04	10.1638
27.045	10.4171	27.045	10.1543
27.05	10.4268	27.05	10.1472
27.055	10.4342	27.055	10.1419
27.06	10.4399	27.06	10.138
27.065	8.77892	27.065	8.46975
27.07	9.18416	27.07	8.86949
27.075	9.48819	27.075	9.16934
27.08	10.1033	27.08	9.00731
27.085	10.1828	27.085	9.2677
27.09	10.2426	27.09	9.46303
27.095	9.66199	27.095	10.235
27.1	9.84994	27.1	10.1908
27.105	9.991	27.105	10.1577
27.11	10.0969	27.11	10.1329
27.115	10.1764	27.115	10.1143
27.12	10.2362	27.12	10.1005
27.125	10.2811	27.125	10.0901
27.13	10.3148	27.13	10.0824
27.135	10.3403	27.135	10.0766
27.14	10.3595	27.14	10.0723
27.145	9.74846	27.145	10.6946
27.15	9.91358	27.15	10.5381
27.155	10.0375	27.155	10.4208
27.16	10.1306	27.16	10.3328
27.165	10.2005	27.165	10.2669
27.17	10.6399	27.17	9.83056
27.175	10.5878	27.175	9.8852
27.18	10.5487	27.18	9.92623
27.185	10.5196	27.185	9.95704
27.19	10.4978	27.19	9.98019
27.195	10.4816	27.195	9.99759
27.2	10.4695	27.2	10.0107
27.205	10.4605	27.205	10.0205
27.21	10.4539	27.21	10.028
27.215	9.82355	27.215	10.6591
27.22	9.97416	27.22	10.5092
27.225	10.0872	27.225	10.3968
27.23	10.1721	27.23	10.3125
27.235	10.2359	27.235	10.2494
27.24	9.00534	27.24	8.14975
27.245	9.35155	27.245	8.60779
27.25	9.61129	27.25	8.95134
27.255	9.80617	27.255	9.20902
27.26	9.95241	27.26	9.40231
27.265	10.0622	27.265	9.5473
27.27	10.1446	27.27	9.65607
27.275	9.58097	27.275	10.3631
27.28	9.78161	27.28	10.2702
27.285	9.93218	27.285	10.2005
27.29	10.0452	27.29	10.1483
27.295	10.517	27.295	9.72219
27.3	10.489	27.3	9.78451
27.305	10.4681	27.305	9.83127
27.31	10.4525	27.31	9.86636
27.315	10.4409	27.315	9.89271
27.32	10.4323	27.32	9.91249
27.325	10.8128	27.325	9.54041
27.33	10.7165	27.33	9.64323
27.335	10.6442	27.335	9.72038
27.34	10.5902	27.34	9.77826
27.345	9.92422	27.345	10.4472
27.35	10.0481	27.35	10.3256
27.355	10.1411	27.355	10.2345
27.36	10.2109	27.36	10.1661
27.365	10.2633	27.365	10.1149
27.37	10.3028	27.37	10.0765
27.375	10.3324	27.375	10.0477
27.38	10.3547	27.38	10.0262
27.385	10.7584	27.385	9.62311
27.39	10.2925	27.39	10.0896
27.395	10.712	27.395	9.67074
27.4	10.6448	27.4	9.73846
27.405	10.5944	27.405	9.78927
27.41	10.5568	27.41	9.82741
27.415	10.5286	27.415	9.85604
27.42	9.88206	27.42	10.503
27.425	10.0205	27.425	10.365
27.43	10.1244	27.43	10.2615
27.435	10.2024	27.435	10.1839
27.44	10.261	27.44	10.1258
27.445	10.305	27.445	10.0822
27.45	10.3381	27.45	10.0495
27.455	10.363	27.455	10.025
27.46	10.7687	27.46	9.61974
27.465	10.6912	27.465	9.69768
27.47	10.6331	27.47	9.75615
27.475	10.5896	27.475	9.80003
27.48	10.5571	27.48	9.83297
27.485	10.5328	27.485	9.8577
27.49	10.5146	27.49	9.87628
27.495	9.8756	27.495	10.5157
27.5	10.0197	27.5	10.372
27.505	10.1278	27.505	10.2643
27.51	10.209	27.51	10.1836
27.515	10.2699	27.515	10.123
27.52	10.3157	27.52	10.0776
27.525	10.3501	27.525	10.0436
27.53	10.376	27.53	10.0181
27.535	10.3955	27.535	9.99905
27.54	10.4102	27.54	9.98477
27.545	10.4213	27.545	9.97408
27.55	10.4297	27.55	9.96609
27.555	8.77069	27.555	8.29473
27.56	9.17737	27.56	8.69211
27.565	9.48244	27.565	8.99016
27.57	9.08582	27.57	9.83918
27.575	9.41168	27.575	9.85268
27.58	9.65612	27.58	9.86282
27.585	9.83952	27.585	9.87043
27.59	10.3641	27.59	9.4892
27.595	9.98871	27.595	9.97209
27.6	10.4761	27.6	9.56547
27.605	10.0728	27.605	10.0293
27.61	10.5393	27.61	9.6084
27.615	10.1203	27.615	10.0615
27.62	10.1881	27.62	10.0195
27.625	10.2389	27.625	9.98803
27.63	10.2771	27.63	9.96442
27.635	10.3058	27.635	9.94672
27.64	10.3274	27.64	9.93345
27.645	9.71813	27.645	10.549
27.65	9.88453	27.65	10.3874
27.655	10.0094	27.655	10.2662
27.66	10.1031	27.66	10.1753
27.665	10.1734	27.665	10.1071
27.67	10.2262	27.67	10.056
27.675	10.2658	27.675	10.0177
27.68	10.2956	27.68	9.98899
27.685	10.318	27.685	9.96745
27.69	10.3349	27.69	9.95131
27.695	10.3476	27.695	9.93921
27.7	10.3572	27.7	9.93015
27.705	10.3644	27.705	9.92336
27.71	10.3699	27.71	9.91828
27.715	10.374	27.715	9.91448
27.72	10.3772	27.72	9.91164
27.725	10.3796	27.725	9.90951
27.73	10.3815	27.73	9.90793
27.735	10.383	27.735	9.90676
27.74	10.3841	27.74	9.90589
27.745	10.3851	27.745	9.90524
27.75	10.3858	27.75	9.90477
27.755	10.3864	27.755	9.90443
27.76	10.3869	27.76	9.90418
27.765	10.3874	27.765	9.904
27.77	9.76227	27.77	10.5294
27.775	9.91677	27.775	10.3751
27.78	10.0327	27.78	10.2594
27.785	10.1197	27.785	10.1727
27.79	10.185	27.79	10.1077
27.795	10.234	27.795	10.0589
27.8	10.2709	27.8	10.0223
27.805	10.2985	27.805	9.99489
27.81	10.3193	27.81	9.97434
27.815	10.335	27.815	9.95894
27.82	10.3468	27.82	9.9474
27.825	10.3557	27.825	9.93875
27.83	10.3624	27.83	9.93228
27.835	10.3675	27.835	9.92744
27.84	10.3714	27.84	9.92382
27.845	10.3744	27.845	9.92111
27.85	10.3766	27.85	9.91909
27.855	10.3784	27.855	9.91759
27.86	12.0452	27.86	11.5819
27.865	11.6444	27.865	11.1792
27.87	11.3439	27.87	10.8773
27.875	11.1186	27.875	10.6508
27.88	10.9497	27.88	10.481
27.885	10.8231	27.885	10.3537
27.89	10.7283	27.89	10.2582
27.895	10.6572	27.895	10.1867
27.9	10.6039	27.9	10.133
27.905	10.5641	27.905	10.0928
27.91	10.5343	27.91	10.0627
27.915	10.512	27.915	10.0401
27.92	10.1084	27.92	10.4102
27.925	10.5746	27.925	9.91896
27.93	10.1555	27.93	10.3194
27.935	10.2231	27.935	10.2378
27.94	10.2739	27.94	10.1767
27.945	9.68653	27.945	10.7564
27.95	9.86938	27.95	10.5679
27.955	8.3412	27.955	8.76119
27.96	8.846	27.96	9.05705
27.965	9.22466	27.965	9.27895
27.97	9.5087	27.97	9.44539
27.975	9.72179	27.975	9.57023
27.98	9.88166	27.98	9.66388
27.985	10.0016	27.985	9.73412
27.99	10.0916	27.99	9.78682
27.995	10.1592	27.995	9.82635
28	10.2099	28	9.85601
28.005	10.248	28.005	9.87827
28.01	10.2766	28.01	9.89498
28.015	10.2982	28.015	9.90752
28.02	10.3143	28.02	9.91693
28.025	10.3265	28.025	9.92401
28.03	10.3357	28.03	9.92933
28.035	10.3427	28.035	9.93333
28.04	10.348	28.04	9.93634
28.045	10.352	28.045	9.93861
28.05	10.355	28.05	9.94033
28.055	9.97041	28.055	10.3286
28.06	10.0639	28.06	10.2379
28.065	10.134	28.065	10.1699
28.07	10.1867	28.07	10.1189
28.075	10.2262	28.075	10.0807
28.08	10.256	28.08	10.052
28.085	10.2783	28.085	10.0306
28.09	10.2951	28.09	10.0145
28.095	10.3078	28.095	10.0024
28.1	10.3173	28.1	9.99337
28.105	10.3245	28.105	9.98661
28.11	10.33	28.11	9.98155
28.115	10.3341	28.115	9.97776
28.12	10.3373	28.12	9.97494
28.125	10.3397	28.125	9.97283
28.13	10.3416	28.13	9.97126
28.135	10.343	28.135	9.9701
28.14	10.3442	28.14	9.96923
28.145	10.3451	28.145	9.9686
28.15	10.3458	28.15	9.96813
28.155	9.72093	28.155	10.5933
28.16	10.5011	28.16	9.8134
28.165	9.83749	28.165	10.4772
28.17	9.96312	28.17	10.3519
28.175	10.0574	28.175	10.2579
28.18	10.1281	28.18	10.1874
28.185	10.1813	28.185	10.1345
28.19	10.2212	28.19	10.0949
28.195	10.2511	28.195	10.0652
28.2	9.8867	28.2	10.4298
28.205	10.3823	28.205	9.93454
28.21	10.3721	28.21	9.94495
28.215	10.3645	28.215	9.95277
28.22	10.3589	28.22	9.95865
28.225	10.3548	28.225	9.96307
28.23	9.96473	28.23	10.3533
28.235	10.0541	28.235	10.2642
28.24	10.5082	28.24	9.81041
28.245	10.08	28.245	10.2389
28.25	10.5277	28.25	9.79145
28.255	10.0947	28.255	10.2247
28.26	10.1518	28.26	10.1678
28.265	8.52937	28.265	8.4597
28.27	8.96345	28.27	8.82953
28.275	9.28904	28.275	9.1069
28.28	9.53326	28.28	9.31492
28.285	9.71646	28.285	9.47093
28.29	9.8539	28.29	9.58793
28.295	9.957	28.295	9.67567
28.3	10.0344	28.3	9.74147
28.305	10.0924	28.305	9.79081
28.31	10.136	28.31	9.82782
28.315	10.1687	28.315	9.85556
28.32	10.1933	28.32	9.87636
28.325	10.2117	28.325	9.89196
28.33	10.2256	28.33	9.90365
28.335	10.236	28.335	9.91241
28.34	10.2439	28.34	9.91898
28.345	10.2498	28.345	9.92389
28.35	10.2543	28.35	9.92757
28.355	10.2577	28.355	9.93033
28.36	10.2603	28.36	9.93239
28.365	10.2622	28.365	9.93393
28.37	10.2637	28.37	9.93507
28.375	10.2649	28.375	9.93593
28.38	10.2658	28.38	9.93656
28.385	10.2665	28.385	9.93703
28.39	10.2671	28.39	9.93738
28.395	10.2675	28.395	9.93763
28.4	10.2679	28.4	9.93781
28.405	10.6551	28.405	9.551
28.41	10.1768	28.41	10.0297
28.415	10.5869	28.415	9.61989
28.42	10.5126	28.42	9.6944
28.425	10.457	28.425	9.75028
28.43	10.0283	28.43	10.1791
28.435	11.7541	28.435	11.7843
28.44	11.3976	28.44	11.3373
28.445	11.5172	28.445	10.6151
28.45	11.2251	28.45	10.4553
28.455	10.6192	28.455	10.7225
28.46	10.5466	28.46	10.541
28.465	10.4922	28.465	10.4048
28.47	10.4515	28.47	10.3028
28.475	10.808	28.475	9.83928
28.48	10.3066	28.48	10.2605
28.485	10.6994	28.485	9.8076
28.49	10.2252	28.49	10.2368
28.495	10.2515	28.495	10.1768
28.5	10.2713	28.5	10.1318
28.505	10.2861	28.505	10.0981
28.51	10.2973	28.51	10.0728
28.515	10.3058	28.515	10.0539
28.52	10.3122	28.52	10.0397
28.525	10.3171	28.525	10.029
28.53	10.3207	28.53	10.0211
28.535	10.3236	28.535	10.0151
28.54	10.3257	28.54	10.0106
28.545	10.3274	28.545	10.0073
28.55	10.3287	28.55	10.0048
28.555	10.3297	28.555	10.003
28.56	10.3306	28.56	10.0016
28.565	10.3312	28.565	10.0006
28.57	10.3318	28.57	9.99983
28.575	9.9453	28.575	10.3862
28.58	10.0374	28.58	10.2942
28.585	10.1064	28.585	10.2251
28.59	10.1583	28.59	10.1734
28.595	10.1973	28.595	10.1346
28.6	10.2265	28.6	10.1055
28.605	10.2485	28.605	10.0837
28.61	10.2651	28.61	10.0673
28.615	10.2776	28.615	10.0551
28.62	10.287	28.62	10.0459
28.625	10.2941	28.625	10.0391
28.63	10.2994	28.63	10.0339
28.635	10.3035	28.635	10.0301
28.64	10.3066	28.64	10.0272
28.645	10.309	28.645	10.0251
28.65	8.64546	28.65	8.3581
28.655	9.04872	28.655	8.75874
28.66	9.3512	28.66	9.05922
28.665	9.57809	28.665	9.28457
28.67	9.36134	28.67	9.84053
28.675	9.96762	28.675	9.48868
28.68	9.65355	28.68	9.99359
28.685	10.1868	28.685	9.60346
28.69	9.81804	28.69	10.0797
28.695	9.92332	28.695	10.055
28.7	10.3893	28.7	9.64946
28.705	9.96995	28.705	10.1141
28.71	10.0374	28.71	10.0808
28.715	10.0879	28.715	10.0558
28.72	10.1259	28.72	10.037
28.725	10.1544	28.725	10.0229
28.73	10.1758	28.73	10.0123
28.735	10.1919	28.735	10.0044
28.74	10.204	28.74	9.99844
28.745	10.2131	28.745	9.99397
28.75	10.22	28.75	9.99061
28.755	10.2252	28.755	9.98808
28.76	10.2291	28.76	9.98618
28.765	10.2321	28.765	9.98474
28.77	10.2343	28.77	9.98366
28.775	10.2361	28.775	9.98285
28.78	10.2374	28.78	9.98223
28.785	10.2384	28.785	9.98175
28.79	10.2392	28.79	9.9814
28.795	10.2398	28.795	9.98112
28.8	10.2404	28.8	9.98091
28.805	10.2408	28.805	9.98074
28.81	10.2411	28.81	9.98061
28.815	10.2414	28.815	9.9805
28.82	10.2416	28.82	9.98042
28.825	10.2419	28.825	9.98035
28.83	10.2421	28.83	9.98029
28.835	10.2422	28.835	9.98024
28.84	10.2424	28.84	9.98019
28.845	10.2426	28.845	9.98015
28.85	10.2427	28.85	9.98012
28.855	10.2429	28.855	9.98008
28.86	10.243	28.86	9.98005
28.865	10.2431	28.865	9.98002
28.87	10.2433	28.87	9.97999
28.875	10.2434	28.875	9.97997
28.88	10.2435	28.88	9.97994
28.885	10.6306	28.885	9.59296
28.89	10.1521	28.89	10.0715
28.895	10.1752	28.895	10.0486
28.9	10.5794	28.9	9.64444
28.905	10.1139	28.905	10.1101
28.91	10.5335	28.91	9.69058
28.915	10.0795	28.915	10.1447
28.92	10.5078	28.92	9.7165
28.925	10.4472	28.925	9.7772
28.93	10.4018	28.93	9.82272
28.935	10.3677	28.935	9.85685
28.94	10.3423	28.94	9.88245
28.945	10.3232	28.945	9.90163
28.95	10.3089	28.95	9.91602
28.955	10.2982	28.955	9.9268
28.96	10.2902	28.96	9.93488
28.965	10.2843	28.965	9.94093
28.97	10.2798	28.97	9.94547
28.975	10.2766	28.975	9.94886
28.98	10.2741	28.98	9.9514
28.985	10.2723	28.985	9.9533
28.99	10.271	28.99	9.95472
28.995	9.8831	28.995	10.3427
29	10.361	29	9.8649
29.005	9.95068	29.005	10.2753
29.01	10.4118	29.01	9.81436
29.015	9.98881	29.015	10.2374
29.02	10.4404	29.02	9.78591
29.025	10.0104	29.025	10.2161
29.03	10.4567	29.03	9.76988
29.035	10.4095	29.035	9.8171
29.04	9.9873	29.04	10.2394
29.045	10.4395	29.045	9.78739
29.05	10.0098	29.05	10.2172
29.055	10.0694	29.055	10.1576
29.06	10.1142	29.06	10.1129
29.065	10.1478	29.065	10.0794
29.07	10.1731	29.07	10.0543
29.075	10.192	29.075	10.0354
29.08	10.2063	29.08	10.0213
29.085	10.217	29.085	10.0107
29.09	10.2251	29.09	10.0027
29.095	10.2312	29.095	9.99671
29.1	10.2358	29.1	9.99222
29.105	10.2392	29.105	9.98884
29.11	10.2419	29.11	9.9863
29.115	10.2439	29.115	9.98439
29.12	10.2454	29.12	9.98295
29.125	10.2466	29.125	9.98186
29.13	10.2475	29.13	9.98104
29.135	10.2483	29.135	9.98042
29.14	10.2488	29.14	9.97995
29.145	10.2493	29.145	9.97958
29.15	10.2497	29.15	9.97931
29.155	10.25	29.155	9.97909
29.16	10.2503	29.16	9.97893
29.165	10.2505	29.165	9.97879
29.17	10.2507	29.17	9.97869
29.175	10.2509	29.175	9.9786
29.18	10.2511	29.18	9.97853
29.185	10.2512	29.185	9.97847
29.19	10.2514	29.19	9.97842
29.195	10.2515	29.195	9.97838
29.2	10.2517	29.2	9.97834
29.205	9.86487	29.205	10.3652
29.21	9.95666	29.21	10.2736
29.215	10.4125	29.215	9.81784
29.22	10.6111	29.22	9.61938
29.225	10.2801	29.225	9.95046
29.23	10.5118	29.23	9.71883
29.235	10.4442	29.235	9.7865
29.24	10.3936	29.24	9.83725
29.245	10.3556	29.245	9.87531
29.25	10.3272	29.25	9.90384
29.255	10.3059	29.255	9.92523
29.26	10.29	29.26	9.94127
29.265	10.2781	29.265	9.95329
29.27	10.2692	29.27	9.9623
29.275	10.2625	29.275	9.96905
29.28	10.2576	29.28	9.9741
29.285	10.2539	29.285	9.97788
29.29	10.2511	29.29	9.98071
29.295	10.2491	29.295	9.98283
29.3	10.2477	29.3	9.98441
29.305	10.2466	29.305	9.98558
29.31	10.2458	29.31	9.98646
29.315	10.2453	29.315	9.98711
29.32	10.2449	29.32	9.98759
29.325	10.2446	29.325	9.98794
29.33	10.2445	29.33	9.9882
29.335	10.2444	29.335	9.98838
29.34	10.2444	29.34	9.98851
29.345	10.2444	29.345	9.98861
29.35	9.85747	29.35	10.3756
29.355	9.94919	29.355	10.284
29.36	10.018	29.36	10.2153
29.365	10.0697	29.365	10.1637
29.37	10.1084	29.37	10.1251
29.375	10.1375	29.375	10.0961
29.38	10.1594	29.38	10.0743
29.385	10.1758	29.385	10.058
29.39	10.1882	29.39	10.0457
29.395	10.1975	29.395	10.0365
29.4	10.2045	29.4	10.0296
29.405	10.2098	29.405	10.0244
29.41	10.2138	29.41	10.0205
29.415	10.2168	29.415	10.0176
29.42	10.2191	29.42	10.0154
29.425	10.2209	29.425	10.0137
29.43	9.83531	29.43	10.3994
29.435	9.92801	29.435	10.3068
29.44	9.99758	29.44	10.2373
29.445	10.0498	29.445	10.1852
29.45	10.089	29.45	10.1462
29.455	10.1184	29.455	10.1168
29.46	10.1405	29.46	10.0948
29.465	10.1571	29.465	10.0783
29.47	10.1696	29.47	10.066
29.475	10.179	29.475	10.0567
29.48	10.1861	29.48	10.0497
29.485	10.1914	29.485	10.0444
29.49	10.1955	29.49	10.0405
29.495	10.1985	29.495	10.0375
29.5	10.2008	29.5	10.0353
29.505	10.2026	29.505	10.0336
29.51	10.204	29.51	10.0324
29.515	10.2051	29.515	10.0314
29.52	10.2059	29.52	10.0307
29.525	10.2065	29.525	10.0301
29.53	10.2071	29.53	10.0297
29.535	10.2075	29.535	10.0294
29.54	10.2078	29.54	10.0291
29.545	10.2081	29.545	10.0289
29.55	10.2084	29.55	10.0288
29.555	10.2086	29.555	10.0287
29.56	10.2088	29.56	10.0286
29.565	10.5959	29.565	9.64153
29.57	10.1175	29.57	10.1201
29.575	10.1406	29.575	10.0971
29.58	10.5449	29.58	9.69291
29.585	10.0793	29.585	10.1586
29.59	10.499	29.59	9.73901
29.595	10.4319	29.595	9.80619
29.6	10.3816	29.6	9.85657
29.605	10.344	29.605	9.89435
29.61	10.3157	29.61	9.92267
29.615	10.2946	29.615	9.94391
29.62	10.2788	29.62	9.95983
29.625	10.2669	29.625	9.97176
29.63	10.2581	29.63	9.9807
29.635	10.2515	29.635	9.9874
29.64	10.2466	29.64	9.99242
29.645	11.9083	29.645	11.6616
29.65	11.5038	29.65	11.2626
29.655	11.2005	29.655	10.9633
29.66	10.973	29.66	10.7389
29.665	10.8025	29.665	10.5706
29.67	10.6746	29.67	10.4444
29.675	10.5788	29.675	10.3497
29.68	10.5069	29.68	10.2787
29.685	10.4531	29.685	10.2255
29.69	10.7998	29.69	9.79865
29.695	10.6779	29.695	9.86039
29.7	10.5866	29.7	9.9067
29.705	10.5182	29.705	9.94145
29.71	10.4669	29.71	9.96753
29.715	10.4285	29.715	9.98709
29.72	10.3997	29.72	10.0018
29.725	10.3782	29.725	10.0128
29.73	10.3621	29.73	10.0211
29.735	10.3501	29.735	10.0273
29.74	10.3412	29.74	10.032
29.745	10.3345	29.745	10.0355
29.75	10.3295	29.75	10.0382
29.755	10.3259	29.755	10.0402
29.76	10.3232	29.76	10.0417
29.765	10.3212	29.765	10.0428
29.77	10.3198	29.77	10.0437
29.775	10.3188	29.775	10.0444
29.78	8.65268	29.78	8.37948
29.785	9.05403	29.785	8.7817
29.79	9.35507	29.79	9.08336
29.795	9.58089	29.795	9.30959
29.8	9.75028	29.8	9.47926
29.805	9.87736	29.805	9.60651
29.81	9.9727	29.81	9.70194
29.815	10.0442	29.815	9.7735
29.82	10.4849	29.82	9.44022
29.825	10.0466	29.825	9.95906
29.83	10.4867	29.83	9.57937
29.835	9.42252	29.835	10.6889
29.84	10.0165	29.84	10.1289
29.845	10.0802	29.845	10.0908
29.85	10.1279	29.85	10.0623
29.855	10.1638	29.855	10.0408
29.86	10.1907	29.86	10.0247
29.865	10.211	29.865	10.0126
29.87	10.2262	29.87	10.0036
29.875	10.2376	29.875	9.99678
29.88	10.2462	29.88	9.99167
29.885	10.2527	29.885	9.98783
29.89	10.2576	29.89	9.98495
29.895	10.2613	29.895	9.98278
29.9	10.2641	29.9	9.98115
29.905	10.2662	29.905	9.97991
29.91	10.2679	29.91	9.97898
29.915	10.2691	29.915	9.97828
29.92	10.2701	29.92	9.97774
29.925	10.2709	29.925	9.97734
29.93	10.6584	29.93	9.59008
29.935	10.5673	29.935	9.68149
29.94	10.4989	29.94	9.75005
29.945	10.4477	29.945	9.80146
29.95	10.4093	29.95	9.84001
29.955	10.3805	29.955	9.86892
29.96	10.359	29.96	9.89059
29.965	10.3429	29.965	9.90684
29.97	10.3308	29.97	9.91902
29.975	10.3218	29.975	9.92815
29.98	10.3151	29.98	9.93499
29.985	10.3101	29.985	9.94011
29.99	10.3064	29.99	9.94395
29.995	10.3036	29.995	9.94682
30	-2.84777	30	-3.20034
30.005	-2.86672	30.005	-3.21619
30.01	-2.88526	30.01	-3.23245
30.015	-2.9035	30.015	-3.24901
30.02	-2.92152	30.02	-3.2658
30.025	-2.93936	30.025	-3.28277
30.03	-2.95707	30.03	-3.29986
30.035	-2.97468	30.035	-3.31705
30.04	-2.99222	30.04	-3.33431
30.045	-3.00971	30.045	-3.35163
30.05	-3.02716	30.05	-3.36898
30.055	-3.04458	30.055	-3.38637
30.06	-1.39657	30.06	-1.73838
30.065	-2.44126	30.065	-1.53216
30.07	-2.60581	30.07	-2.00511
30.075	-2.73354	30.075	-2.36417
30.08	-2.4467	30.08	-3.02476
30.085	-0.952357	30.085	-1.4773
30.09	-2.11226	30.09	-1.34644
30.095	-2.36322	30.095	-1.8759
30.1	-2.94267	30.1	-1.89038
30.105	-1.3343	30.105	-0.622031
30.11	-2.40867	30.11	-0.700496
30.115	-0.543104	30.115	-0.108476
30.12	0.484449	30.12	0.727618
30.125	1.02685	30.125	1.60346
30.13	1.05985	30.13	2.65466
30.135	2.10513	30.135	2.44312
30.14	2.51754	30.14	2.67662
30.145	0.546316	30.145	1.82214
30.15	3.0178	30.15	3.88461
30.155	3.23089	30.155	3.79092
30.16	4.82797	30.16	5.63495
30.165	4.62673	30.165	5.13608
30.17	3.86078	30.17	5.39784
30.175	5.9724	30.175	6.25979
30.18	4.25541	30.18	3.59536
30.185	3.62173	30.185	4.26577
30.19	7.49801	30.19	7.09966
30.195	5.06676	30.195	4.65032
30.2	4.9048	30.2	4.47477
30.205	7.88619	30.205	7.92303
30.21	5.40712	30.21	5.31127
30.215	5.20938	30.215	5.01398
30.22	10.2163	30.22	9.64946
30.225	8.8892	30.225	8.32458
30.23	15.3401	30.23	13.2294
30.235	12.8218	30.235	11.079
30.24	11.331	30.24	9.09012
30.245	12.5472	30.245	11.9475
30.25	11.1787	30.25	9.78949
30.255	9.78153	30.255	8.56381
30.26	12.4624	30.26	10.5994
30.265	11.1874	30.265	8.83025
30.27	9.86031	30.27	7.89633
30.275	14.2593	30.275	11.8162
30.28	12.6221	30.28	9.80954
30.285	11.0235	30.285	8.69757
30.29	11.5012	30.29	9.54019
30.295	12.2721	30.295	9.81096
30.3	10.8289	30.3	8.75628
30.305	13.4755	30.305	10.9204
30.31	11.7882	30.31	9.63494
30.315	15.9172	30.315	13.2915
30.32	14.0779	30.32	11.0875
30.325	12.328	30.325	9.82793
30.33	16.0233	30.33	13.8909
30.335	14.2406	30.335	11.6101
30.34	17.9164	30.34	14.9021
30.345	15.3504	30.345	12.812
30.35	20.0992	30.35	17.9177
30.355	17.069	30.355	15.1552
30.36	14.8082	30.36	13.0951
30.365	14.7898	30.365	13.2272
30.37	13.7625	30.37	11.0618
30.375	14.046	30.375	11.7383
30.38	14.285	30.38	12.272
30.385	12.8254	30.385	11.0334
30.39	11.7426	30.39	10.1164
30.395	12.608	30.395	11.1061
30.4	11.6181	30.4	10.2094
30.405	10.5009	30.405	9.93592
30.41	14.0131	30.41	12.0663
30.415	12.7344	30.415	10.9977
30.42	10.1221	30.42	8.543
30.425	14.0483	30.425	14.1351
30.43	12.8162	30.43	12.6249
30.435	11.9043	30.435	11.5046
30.44	13.5236	30.44	11.7165
30.445	12.0893	30.445	11.247
30.45	11.4077	30.45	10.5254
30.455	15.1312	30.455	15.7665
30.46	14.3727	30.46	13.3679
30.465	17.4154	30.465	17.9748
30.47	13.4686	30.47	14.4475
30.475	12.1668	30.475	13.4706
30.48	16.4327	30.48	17.5131
30.485	14.4456	30.485	15.8514
30.49	11.6843	30.49	12.5705
30.495	13.8338	30.495	15.878
30.5	13.1591	30.5	14.0672
30.505	13.3159	30.505	15.4026
30.51	12.1721	30.51	14.3891
30.515	10.2821	30.515	11.356
30.52	12.8437	30.52	15.0909
30.525	11.8528	30.525	14.2263
30.53	12.6343	30.53	15.4095
30.535	11.4793	30.535	14.7621
30.54	9.82237	30.54	11.7622
30.545	9.61512	30.545	11.8044
30.55	10.093	30.55	11.2286
30.555	8.97201	30.555	12.302
30.56	9.48089	30.56	11.7833
30.565	9.14912	30.565	12.1337
30.57	8.49664	30.57	9.49526
30.575	8.89951	30.575	9.95202
30.58	7.71723	30.58	11.805
30.585	10.3759	30.585	13.0063
30.59	9.06384	30.59	10.6068
30.595	8.87688	30.595	11.3381
30.6	9.99851	30.6	10.6508
30.605	8.17725	30.605	9.49329
30.61	7.19178	30.61	8.24187
30.615	7.72975	30.615	9.35423
30.62	6.86284	30.62	8.15434
30.625	6.83678	30.625	6.62756
30.63	7.47105	30.63	8.15668
30.635	7.7163	30.635	9.56027
30.64	7.49677	30.64	7.71196
30.645	8.37293	30.645	8.61303
30.65	6.99091	30.65	8.02356
30.655	6.09642	30.655	7.43678
30.66	7.95653	30.66	7.79386
30.665	7.07617	30.665	7.03274
30.67	6.80156	30.67	6.07363
30.675	7.87785	30.675	7.40024
30.68	7.03291	30.68	6.743
30.685	7.43786	30.685	8.53965
30.69	7.72513	30.69	6.59926
30.695	7.97412	30.695	8.4387
30.7	7.75749	30.7	6.91738
30.705	8.63592	30.705	8.06379
30.71	7.4041	30.71	7.51
30.715	6.72044	30.715	6.85201
30.72	8.25884	30.72	7.63572
30.725	7.37868	30.725	6.95325
30.73	8.76972	30.73	7.71863
30.735	7.77907	30.735	7.02243
30.74	9.08726	30.74	7.77753
30.745	8.03449	30.745	7.07364
30.75	9.29611	30.75	7.82299
30.755	8.20843	30.755	7.1148
30.76	7.39154	30.76	6.5825
30.765	8.83009	30.765	7.46056
30.77	7.87513	30.77	6.84893
30.775	7.1578	30.775	6.38906
30.78	8.28408	30.78	7.70841
30.785	7.47681	30.785	7.0459
30.79	7.25721	30.79	6.16094
30.795	8.7619	30.795	7.15641
30.8	7.85658	30.8	6.63288
30.805	8.21643	30.805	8.53
30.81	7.84459	30.81	7.29064
30.815	8.84819	30.815	8.4073
30.82	8.33591	30.82	7.20588
30.825	9.62114	30.825	7.96406
30.83	8.55128	30.83	7.26262
30.835	9.80022	30.835	8.01394
30.84	10.7555	30.84	8.58582
30.845	9.43824	30.845	7.7447
30.85	8.44931	30.85	7.11284
30.855	9.37203	30.855	8.30333
30.86	8.79916	30.86	7.15737
30.865	9.65208	30.865	8.34417
30.87	8.63994	30.87	7.5824
30.875	8.91981	30.875	9.30098
30.88	8.48812	30.88	7.92785
30.885	9.8339	30.885	8.55737
30.89	8.80958	30.89	7.75954
30.895	9.70583	30.895	8.82564
30.9	9.11319	30.9	7.58645
30.905	8.28596	30.905	7.03802
30.91	9.33005	30.91	8.29117
30.915	10.5137	30.915	8.8577
30.92	9.36784	30.92	8.01269
30.925	8.5076	30.925	7.37806
30.93	9.52697	30.93	8.56661
30.935	8.63978	30.935	7.80627
30.94	7.97356	30.94	7.23516
30.945	9.13846	30.945	8.47136
30.95	10.0258	30.95	9.41218
30.955	9.03969	30.955	8.46609
30.96	10.3516	30.96	9.03415
30.965	9.30206	30.965	8.19036
30.97	8.51412	30.97	7.55673
30.975	11.2532	30.975	10.4115
30.98	9.37949	30.98	9.8755
30.985	9.22224	30.985	8.224
30.99	9.52021	30.99	9.89876
30.995	8.71536	30.995	8.87992
31	9.77641	31	9.78045
31.005	8.9206	31.005	8.80423
31.01	9.94346	31.01	9.73674
31.015	9.05903	31.015	8.78453
31.02	8.39503	31.02	8.06966
31.025	9.56176	31.025	9.19821
31.03	8.78526	31.03	8.39305
31.035	9.86763	31.035	9.45389
31.04	9.02787	31.04	8.59796
31.045	8.39742	31.045	7.95535
31.05	9.58934	31.05	9.13812
31.055	8.83178	31.055	8.37367
31.06	7.87604	31.06	8.18663
31.065	9.20588	31.065	9.32923
31.07	8.55177	31.07	8.53467
31.075	8.06059	31.075	7.93812
31.08	9.35701	31.08	9.15548
31.085	8.67785	31.085	8.417
31.09	8.1679	31.09	7.86253
31.095	9.06332	31.095	9.49842
31.1	8.46529	31.1	8.69199
31.105	8.01621	31.105	8.08658
31.11	9.34424	31.11	9.29733
31.115	8.68883	31.115	8.55393
31.12	8.19673	31.12	7.99581
31.125	9.49251	31.125	9.24205
31.13	8.42599	31.13	8.91224
31.135	8.00744	31.135	8.28246
31.14	9.35841	31.14	9.47498
31.145	8.72024	31.145	8.71794
31.15	8.24111	31.15	8.14964
31.155	9.15971	31.155	9.77522
31.16	8.57916	31.16	8.96114
31.165	9.80865	31.165	10.0155
31.17	8.69247	31.17	9.54177
31.175	8.23674	31.175	8.80414
31.18	9.55988	31.18	9.91582
31.185	8.90089	31.185	9.09822
31.19	8.40621	31.19	8.48455
31.195	9.3132	31.195	10.0762
31.2	8.72399	31.2	9.23666
31.205	9.94706	31.205	10.272
31.21	8.82612	31.21	9.78409
31.215	10.0323	31.215	10.7013
31.22	9.2856	31.22	9.73784
31.225	8.72521	31.225	9.01486
31.23	9.58298	31.23	10.5246
31.235	8.95692	31.235	9.62367
31.24	8.487	31.24	8.94761
31.245	8.1342	31.245	8.44017
31.25	7.86923	31.25	8.05919
31.255	9.33553	31.255	9.43846
31.26	8.78402	31.26	8.82164
31.265	7.98309	31.265	8.7456
31.27	7.76391	31.27	8.30632
31.275	7.59918	31.275	7.97649
31.28	7.47528	31.28	7.72874
31.285	9.04741	31.285	9.20795
31.29	8.57528	31.29	8.6661
31.295	8.22086	31.295	8.25936
31.3	7.95471	31.3	7.95395
31.305	7.75477	31.305	7.72453
31.31	9.26988	31.31	9.21751
31.315	8.75502	31.315	8.68601
31.32	8.36856	31.32	8.28705
31.325	8.0784	31.325	7.98749
31.33	7.86048	31.33	7.76248
31.335	7.69673	31.335	7.59338
31.34	7.5736	31.34	7.46622
31.345	9.14635	31.345	9.03591
31.35	8.28777	31.35	8.94891
31.355	8.02542	31.355	8.50148
31.36	7.82836	31.36	8.16559
31.365	7.68028	31.365	7.91335
31.37	7.56893	31.37	7.72385
31.375	7.48513	31.375	7.58141
31.38	7.42198	31.38	7.47425
31.385	9.03973	31.385	9.05897
31.39	8.60188	31.39	8.59631
31.395	8.27322	31.395	8.24902
31.4	8.02645	31.4	7.98825
31.405	7.84111	31.405	7.79237
31.41	7.70183	31.41	7.64517
31.415	7.59709	31.415	7.53446
31.42	8.55819	31.42	9.74201
31.425	8.87662	31.425	8.49774
31.43	8.25338	31.43	8.42607
31.435	8.02711	31.435	8.13063
31.44	7.85715	31.44	7.90877
31.445	7.72943	31.445	7.74209
31.45	7.63339	31.45	7.61681
31.455	7.5611	31.455	7.52256
31.46	9.17203	31.46	9.117
31.465	8.7291	31.465	8.66167
31.47	8.39667	31.47	8.31991
31.475	8.14712	31.475	8.06333
31.48	7.95971	31.48	7.87064
31.485	7.81893	31.485	7.72586
31.49	7.71311	31.49	7.61701
31.495	7.63351	31.495	7.53512
31.5	7.57357	31.5	7.47343
31.505	7.52839	31.505	7.42691
31.51	7.49427	31.51	7.39176
31.515	7.46844	31.515	7.36513
31.52	7.83579	31.52	6.95796
31.525	9.39459	31.525	8.69958
31.53	8.91259	31.53	8.35466
31.535	8.55087	31.535	8.09573
31.54	8.27937	31.54	7.90129
31.545	8.46247	31.545	7.36827
31.55	8.21772	31.55	7.35013
31.555	8.03395	31.555	7.33628
31.56	7.8959	31.56	7.32566
31.565	7.79215	31.565	7.31745
31.57	7.71412	31.57	7.31105
31.575	9.32078	31.575	8.9714
31.58	8.87469	31.58	8.56556
31.585	8.53993	31.585	8.26095
31.59	8.28866	31.59	8.03227
31.595	8.10001	31.595	7.86054
31.6	7.7198	31.6	7.97005
31.605	7.67585	31.605	7.81056
31.61	7.64269	31.61	7.69072
31.615	7.61762	31.615	7.60061
31.62	7.59863	31.62	7.53282
31.625	9.24958	31.625	9.14714
31.63	8.83673	31.63	8.70679
31.635	8.52691	31.635	8.37633
31.64	8.68131	31.64	7.74133
31.645	8.41508	31.645	7.64675
31.65	8.21522	31.65	7.57561
31.655	8.06515	31.655	7.52205
31.66	7.95242	31.66	7.48168
31.665	9.5331	31.665	9.1166
31.67	9.06755	31.67	8.69171
31.675	9.10518	31.675	7.98591
31.68	8.75138	31.68	7.83825
31.685	8.48587	31.685	7.72732
31.69	8.28658	31.69	7.64394
31.695	8.13695	31.695	7.58122
31.7	8.02457	31.7	7.53399
31.705	7.94013	31.705	7.4984
31.71	8.26359	31.71	7.08457
31.715	8.12416	31.715	7.15588
31.72	8.01943	31.72	7.20918
31.725	7.94073	31.725	7.24897
31.73	7.88154	31.73	7.27863
31.735	7.83699	31.735	7.30069
31.74	9.46882	31.74	8.98245
31.745	9.04166	31.745	8.59272
31.75	8.72115	31.75	8.30025
31.755	8.48063	31.755	8.08074
31.76	8.3001	31.76	7.91594
31.765	8.16456	31.765	7.79218
31.77	7.43729	31.77	8.32467
31.775	8.14045	31.775	7.47513
31.78	7.41893	31.78	8.08656
31.785	8.1264	31.785	7.29622
31.79	8.03359	31.79	7.32657
31.795	7.33837	31.795	7.97465
31.8	8.06556	31.8	7.21179
31.805	7.98755	31.805	7.26276
31.81	7.30341	31.81	7.9263
31.815	8.03893	31.815	7.17504
31.82	9.00707	31.82	9.52559
31.825	8.70544	31.825	9.01418
31.83	8.47909	31.83	8.63049
31.835	8.69616	31.835	7.95563
31.84	8.47697	31.84	7.8312
31.845	8.31246	31.845	7.73774
31.85	8.18895	31.85	7.6675
31.855	8.09621	31.855	7.61467
31.86	8.02652	31.86	7.57491
31.865	7.97414	31.865	7.54495
31.87	7.93474	31.87	7.52233
31.875	7.90506	31.875	7.50523
31.88	7.88268	31.88	7.49225
31.885	7.86578	31.885	7.48238
31.89	7.85298	31.89	7.47483
31.895	7.45631	31.895	7.85597
31.9	7.54056	31.9	7.75982
31.905	7.60362	31.905	7.68756
31.91	7.6508	31.91	7.63322
31.915	7.68606	31.915	7.59233
31.92	7.71239	31.92	7.56151
31.925	7.73201	31.925	7.53825
31.93	7.74661	31.93	7.52067
31.935	8.14438	31.935	7.12039
31.94	9.72613	31.94	8.8673
31.945	9.26144	31.945	8.52646
31.95	8.91282	31.95	8.27071
31.955	8.65125	31.955	8.07877
31.96	8.45498	31.96	7.9347
31.965	8.30767	31.965	7.82651
31.97	8.19709	31.97	7.74525
31.975	8.11405	31.975	7.68418
31.98	8.05167	31.98	7.63825
31.985	7.61784	31.985	7.99063
31.99	7.67423	31.99	7.87292
31.995	7.71642	31.995	7.78452
32	7.74796	32	7.71809
32.005	7.77151	32.005	7.66815
32.01	7.78908	32.01	7.63056
32.015	7.80215	32.015	7.60225
32.02	7.81185	32.02	7.58089
32.025	7.81903	32.025	7.56475
32.03	7.82431	32.03	7.55252
32.035	7.82817	32.035	7.54322
32.04	7.83096	32.04	7.53612
32.045	9.49835	32.045	9.19607
32.05	9.48486	32.05	8.40309
32.055	9.0928	32.055	8.19011
32.06	8.41173	32.06	8.41722
32.065	8.2827	32.065	8.20558
32.07	8.18585	32.07	8.04674
32.075	8.11313	32.075	7.92751
32.08	8.05851	32.08	7.83798
32.085	8.01746	32.085	7.77073
32.09	7.98659	32.09	7.72019
32.095	7.96336	32.095	7.68217
32.1	7.94585	32.1	7.65356
32.105	7.93264	32.105	7.63199
32.11	7.92265	32.11	7.61571
32.115	7.91507	32.115	7.6034
32.12	7.52236	32.12	7.981
32.125	7.99656	32.125	7.49529
32.13	7.97026	32.13	7.51276
32.135	7.95045	32.135	7.52576
32.14	7.93551	32.14	7.53541
32.145	7.92423	32.145	7.54254
32.15	7.91568	32.15	7.54778
32.155	7.90919	32.155	7.5516
32.16	7.90424	32.16	7.55437
32.165	7.90044	32.165	7.55634
32.17	7.89751	32.17	7.55771
32.175	7.89523	32.175	7.55863
32.18	7.89344	32.18	7.55922
32.185	7.89202	32.185	7.55955
32.19	7.89086	32.19	7.5597
32.195	7.88992	32.195	7.5597
32.2	7.50218	32.2	7.94655
32.205	7.98011	32.205	7.46776
32.21	7.56966	32.21	7.87738
32.215	7.6436	32.215	7.80262
32.22	8.08593	32.22	7.3595
32.225	8.03572	32.225	7.40893
32.23	7.99798	32.23	7.44589
32.235	7.9696	32.235	7.4735
32.24	7.94823	32.24	7.49411
32.245	7.93212	32.245	7.50946
32.25	7.91996	32.25	7.52086
32.255	7.91075	32.255	7.52931
32.26	7.90376	32.26	7.53554
32.265	9.56384	32.265	9.20551
32.27	9.15794	32.27	8.807
32.275	8.85345	32.275	8.50804
32.28	8.62502	32.28	8.28373
32.285	8.45364	32.285	8.11541
32.29	8.32503	32.29	7.98909
32.295	8.22852	32.295	7.89426
32.3	7.76912	32.3	8.21
32.305	7.80638	32.305	8.06485
32.31	7.83426	32.31	7.9559
32.315	7.8551	32.315	7.87411
32.32	8.25762	32.32	7.42573
32.325	8.17758	32.325	7.47122
32.33	7.73054	32.33	7.8922
32.335	7.77707	32.335	7.82599
32.34	7.81189	32.34	7.77624
32.345	7.83795	32.345	7.73884
32.35	7.85743	32.35	7.71071
32.355	8.49746	32.355	7.06404
32.36	8.35415	32.36	7.20223
32.365	8.2466	32.365	7.30578
32.37	8.16588	32.37	7.38335
32.375	8.10527	32.375	7.44145
32.38	8.05976	32.38	7.48494
32.385	8.02556	32.385	7.51746
32.39	7.99985	32.39	7.54177
32.395	7.9805	32.395	7.55991
32.4	7.96593	32.4	7.57343
32.405	7.95494	32.405	7.58349
32.41	7.94664	32.41	7.59094
32.415	7.94035	32.415	7.59644
32.42	7.93557	32.42	7.60048
32.425	7.93192	32.425	7.60343
32.43	7.92912	32.43	7.60555
32.435	7.92696	32.435	7.60705
32.44	7.92528	32.44	7.60809
32.445	7.92396	32.445	7.60878
32.45	7.9229	32.45	7.60922
32.455	7.5351	32.455	7.9964
32.46	7.62605	32.46	7.90484
32.465	7.69421	32.465	7.83608
32.47	7.74526	32.47	7.78442
32.475	7.78349	32.475	7.74559
32.48	7.81209	32.48	7.71638
32.485	7.83349	32.485	7.69439
32.49	7.84947	32.49	7.6778
32.495	7.8614	32.495	7.66528
32.5	7.87028	32.5	7.6558
32.505	7.87688	32.505	7.6486
32.51	7.88177	32.51	7.64312
32.515	7.88537	32.515	7.63892
32.52	7.88801	32.52	7.63568
32.525	7.50298	32.525	8.02011
32.53	7.98296	32.53	7.53954
32.535	7.96102	32.535	7.56088
32.54	7.55755	32.54	7.96375
32.545	7.63675	32.545	7.88395
32.55	8.32158	32.55	7.19853
32.555	7.58638	32.555	7.93314
32.56	7.65819	32.56	7.86073
32.565	8.33747	32.565	7.18085
32.57	7.59811	32.57	7.91961
32.575	7.6668	32.575	7.85032
32.58	8.34374	32.58	7.17279
32.585	8.22811	32.585	7.28782
32.59	7.51585	32.59	7.99949
32.595	8.23034	32.595	7.2844
32.6	8.14288	32.6	7.37127
32.605	8.07722	32.605	7.43633
32.61	8.02791	32.61	7.48504
32.615	7.99087	32.615	7.52148
32.62	7.96303	32.62	7.54873
32.625	7.94209	32.625	7.56907
32.63	7.92632	32.63	7.58425
32.635	7.91443	32.635	7.59554
32.64	7.90546	32.64	7.60392
32.645	7.89866	32.645	7.61011
32.65	7.89351	32.65	7.61467
32.655	7.88958	32.655	7.618
32.66	7.88657	32.66	7.62042
32.665	7.88425	32.665	7.62214
32.67	7.88246	32.67	7.62334
32.675	7.88105	32.675	7.62415
32.68	7.87993	32.68	7.62467
32.685	7.87903	32.685	7.62498
32.69	7.87829	32.69	7.62512
32.695	7.49073	32.695	8.01208
32.7	7.58186	32.7	7.92035
32.705	7.65015	32.705	7.85146
32.71	7.70131	32.71	7.79971
32.715	7.73962	32.715	7.76081
32.72	7.76828	32.72	7.73154
32.725	7.78972	32.725	7.70951
32.73	7.80574	32.73	7.69289
32.735	7.8177	32.735	7.68034
32.74	8.21355	32.74	7.2839
32.745	8.12851	32.745	7.36834
32.75	8.06467	32.75	7.43158
32.755	8.01673	32.755	7.47893
32.76	9.25916	32.76	9.56669
32.765	9.30886	32.765	8.71274
32.77	8.96423	32.77	8.45407
32.775	8.31877	32.775	8.64695
32.78	8.60344	32.78	8.02273
32.785	9.06052	32.785	7.31088
32.79	8.78001	32.79	7.40019
32.795	8.5696	32.795	7.46711
32.8	8.02479	32.8	7.90417
32.805	8.38496	32.805	7.46309
32.81	8.27318	32.81	7.51407
32.815	7.80236	32.815	7.93919
32.82	8.21801	32.82	7.48914
32.825	8.14785	32.825	7.5334
32.83	8.09518	32.83	7.56653
32.835	7.6687	32.835	7.97825
32.84	8.1176	32.84	7.51816
32.845	7.68543	32.845	7.94183
32.85	7.74312	32.85	7.87765
32.855	8.1733	32.855	7.4425
32.86	8.11403	32.86	7.49793
32.865	8.06953	32.865	7.53944
32.87	8.03612	32.87	7.5705
32.875	8.01102	32.875	7.59372
32.88	7.99215	32.88	7.61107
32.885	7.97796	32.885	7.62401
32.89	7.96727	32.89	7.63365
32.895	7.95922	32.895	7.6408
32.9	7.95314	32.9	7.6461
32.905	7.94853	32.905	7.65001
32.91	7.94504	32.91	7.65286
32.915	7.94238	32.915	7.65494
32.92	7.5534	32.92	8.04337
32.925	7.64348	32.925	7.95276
32.93	7.71101	32.93	7.88473
32.935	7.76161	32.935	7.83364
32.94	7.79952	32.94	7.79525
32.945	7.82791	32.945	7.76639
32.95	7.84917	32.95	7.74468
32.955	7.86507	32.955	7.72832
32.96	7.87695	32.96	7.71598
32.965	7.88582	32.965	7.70666
32.97	7.89243	32.97	7.6996
32.975	7.89735	32.975	7.69423
32.98	7.901	32.98	7.69014
32.985	7.90369	32.985	7.687
32.99	8.53115	32.99	7.05909
32.995	7.75296	32.995	7.83685
33	8.41802	33	7.17134
33.005	6.00263	33.005	6.25549
33.01	6.46519	33.01	6.59614
33.015	7.43753	33.015	6.22606
33.02	6.91797	33.02	7.19716
33.025	7.15152	33.025	7.30212
33.03	7.9521	33.03	6.75527
33.035	7.9292	33.035	6.96832
33.04	7.28649	33.04	7.7535
33.045	8.05315	33.045	7.09354
33.05	8.00481	33.05	7.22175
33.055	7.34301	33.055	7.9433
33.06	7.46988	33.06	7.8611
33.065	8.19045	33.065	7.17388
33.07	8.10755	33.07	7.28165
33.075	8.04531	33.075	7.36239
33.08	7.99858	33.08	7.42285
33.085	7.72493	33.085	7.70664
33.09	7.76104	33.09	7.67799
33.095	8.41355	33.095	7.03093
33.1	8.27959	33.1	7.16882
33.105	8.17907	33.105	7.27214
33.11	8.10362	33.11	7.34955
33.115	8.04697	33.115	7.40751
33.12	8.00442	33.12	7.45089
33.125	7.97246	33.125	7.48334
33.13	7.32294	33.13	8.13307
33.135	8.0845	33.135	7.37152
33.14	8.03233	33.14	7.42354
33.145	7.99315	33.145	7.46247
33.15	7.9637	33.15	7.49157
33.155	7.94156	33.155	7.51331
33.16	7.29941	33.16	8.15501
33.165	8.06649	33.165	7.38744
33.17	8.01847	33.17	7.43494
33.175	7.35692	33.175	8.09596
33.18	8.10944	33.18	7.34288
33.185	8.05051	33.185	7.40126
33.19	8.00624	33.19	7.44495
33.195	7.97299	33.195	7.47763
33.2	7.94799	33.2	7.50204
33.205	7.92918	33.205	7.52027
33.21	9.58041	33.21	9.19924
33.215	9.1679	33.215	8.80751
33.22	8.85847	33.22	8.51364
33.225	8.62637	33.225	8.29317
33.23	8.45225	33.23	8.12774
33.235	8.32162	33.235	8.0036
33.24	8.2236	33.24	7.91043
33.245	8.15005	33.245	7.84047
33.25	8.4818	33.25	7.40099
33.255	8.3487	33.255	7.45318
33.26	8.24884	33.26	7.49224
33.265	7.78695	33.265	7.90842
33.27	7.82237	33.27	7.83861
33.275	7.84889	33.275	7.78619
33.28	7.86874	33.28	7.7468
33.285	7.88358	33.285	7.71719
33.29	7.89468	33.29	7.69491
33.295	7.90296	33.295	7.67813
33.3	7.90913	33.3	7.66547
33.305	7.91372	33.305	7.65591
33.31	7.91712	33.31	7.64867
33.315	7.91963	33.315	7.64316
33.32	7.92147	33.32	7.63897
33.325	7.92281	33.325	7.63575
33.33	7.92378	33.33	7.63326
33.335	7.92447	33.335	7.63133
33.34	7.92494	33.34	7.62981
33.345	7.92526	33.345	7.62859
33.35	7.92545	33.35	7.62761
33.355	7.92556	33.355	7.62681
33.36	7.9256	33.36	7.62613
33.365	7.92559	33.365	7.62556
33.37	7.92554	33.37	7.62505
33.375	7.92547	33.375	7.6246
33.38	7.92537	33.38	7.6242
33.385	7.92526	33.385	7.62382
33.39	7.92513	33.39	7.62347
33.395	7.925	33.395	7.62313
33.4	7.92486	33.4	7.62281
33.405	7.92471	33.405	7.6225
33.41	7.92456	33.41	7.62219
33.415	7.92441	33.415	7.62189
33.42	7.92426	33.42	7.6216
33.425	7.9241	33.425	7.62131
33.43	7.92395	33.43	7.62102
33.435	7.92379	33.435	7.62073
33.44	7.92363	33.44	7.62044
33.445	7.92347	33.445	7.62016
33.45	7.92331	33.45	7.61987
33.455	7.92315	33.455	7.61959
33.46	7.92299	33.46	7.6193
33.465	7.53589	33.465	8.00597
33.47	7.62738	33.47	7.91403
33.475	7.69597	33.475	7.845
33.48	7.74736	33.48	7.79316
33.485	8.17281	33.485	7.36726
33.49	8.11	33.49	7.42964
33.495	8.06285	33.495	7.47634
33.5	8.02744	33.5	7.51131
33.505	8.00085	33.505	7.53745
33.51	7.59392	33.51	7.94394
33.515	7.43201	33.515	8.10541
33.52	8.17743	33.52	7.35955
33.525	7.72623	33.525	7.8103
33.53	7.76966	33.53	7.76643
33.535	7.17671	33.535	8.35894
33.54	7.98071	33.54	7.55449
33.545	7.33492	33.545	8.19984
33.55	8.09928	33.55	7.43503
33.555	7.42377	33.555	8.11011
33.56	7.54036	33.56	7.99307
33.565	8.25324	33.565	7.27975
33.57	8.16459	33.57	7.36795
33.575	7.47259	33.575	8.05952
33.58	8.20229	33.58	7.32937
33.585	8.12626	33.585	7.40496
33.59	7.83066	33.59	7.70011
33.595	7.85033	33.595	7.68
33.6	8.10357	33.6	7.42631
33.605	7.42658	33.605	8.10287
33.61	7.92901	33.61	7.59999
33.615	8.54941	33.615	6.97915
33.62	8.39139	33.62	7.13672
33.625	7.64736	33.625	7.88031
33.63	8.33805	33.63	7.18918
33.635	7.60727	33.635	7.91951
33.64	7.68242	33.64	7.84392
33.645	7.73874	33.645	7.78716
33.65	7.78094	33.65	7.74451
33.655	7.81255	33.655	7.71246
33.66	7.83622	33.66	7.68835
33.665	7.85393	33.665	7.6702
33.67	7.86717	33.67	7.65652
33.675	7.87705	33.675	7.64619
33.68	7.88443	33.68	7.63837
33.685	7.88992	33.685	7.63243
33.69	7.894	33.69	7.62791
33.695	7.89701	33.695	7.62445
33.7	7.89924	33.7	7.62179
33.705	7.90086	33.705	7.61972
33.71	7.90204	33.71	7.6181
33.715	7.90288	33.715	7.61681
33.72	7.90347	33.72	7.61578
33.725	7.90387	33.725	7.61493
33.73	7.90414	33.73	7.61423
33.735	7.90429	33.735	7.61363
33.74	8.29131	33.74	7.22617
33.745	8.19967	33.745	7.31736
33.75	8.1309	33.75	7.38569
33.755	8.07928	33.755	7.43687
33.76	8.04052	33.76	7.47518
33.765	8.01142	33.765	7.50385
33.77	7.98955	33.77	7.52527
33.775	7.9731	33.775	7.54128
33.78	7.96073	33.78	7.55321
33.785	7.9514	33.785	7.56209
33.79	7.94437	33.79	7.56868
33.795	7.93906	33.795	7.57355
33.8	7.93503	33.8	7.57713
33.805	7.93197	33.805	7.57975
33.81	7.92963	33.81	7.58165
33.815	7.92784	33.815	7.583
33.82	7.92645	33.82	7.58394
33.825	7.92537	33.825	7.58458
33.83	7.92452	33.83	7.58499
33.835	7.92384	33.835	7.58522
33.84	8.31023	33.84	7.19838
33.845	8.21812	33.845	7.29005
33.85	8.149	33.85	7.35873
33.855	8.09712	33.855	7.41017
33.86	8.05816	33.86	7.44868
33.865	8.02891	33.865	7.47749
33.87	8.00692	33.87	7.49903
33.875	7.9904	33.875	7.51512
33.88	7.97796	33.88	7.52711
33.885	7.96859	33.885	7.53604
33.89	7.96152	33.89	7.54266
33.895	7.95618	33.895	7.54756
33.9	7.95213	33.9	7.55117
33.905	7.94906	33.905	7.5538
33.91	7.94671	33.91	7.5557
33.915	7.9449	33.915	7.55706
33.92	7.94351	33.92	7.55801
33.925	7.94243	33.925	7.55866
33.93	7.94157	33.93	7.55907
33.935	7.94089	33.935	7.55931
33.94	7.94034	33.94	7.55942
33.945	7.93988	33.945	7.55943
33.95	7.31402	33.95	8.18485
33.955	8.09333	33.955	7.40509
33.96	8.0545	33.96	7.44348
33.965	7.39986	33.965	8.09768
33.97	8.15759	33.97	7.33951
