time (s) - Front Motor	Motor Voltage (V) - Front Motor	time (s) - Back Motor	Motor Voltage (V) - Back Motor
0	521.97	0	521.97
0.005	396.234	0.005	396.234
0.01	301.936	0.01	301.936
0.015	233.507	0.015	232.256
0.02	179.528	0.02	179.36
0.025	139.43	0.025	139.309
0.03	109.598	0.03	109.036
0.035	86.6003	0.035	86.9642
0.04	69.7374	0.04	70.032
0.045	57.0941	0.045	57.3366
0.05	47.2285	0.05	48.2059
0.055	40.215	0.055	40.9799
0.06	34.9587	0.06	35.5641
0.065	31.0203	0.065	31.5062
0.07	28.0704	0.07	28.4666
0.075	25.8618	0.075	26.1907
0.08	22.5437	0.08	22.8222
0.085	21.7099	0.085	21.9506
0.09	20.7015	0.09	21.6876
0.095	20.3308	0.095	21.1123
0.1	19.6697	0.1	21.0716
0.105	19.5595	0.105	20.663
0.11	19.0937	0.11	20.7474
0.115	18.0902	0.115	18.1417
0.12	17.5951	0.12	19.2393
0.125	17.6043	0.125	19.6895
0.13	17.8485	0.13	19.7975
0.135	17.7889	0.135	20.1288
0.14	17.743	0.14	20.3861
0.145	16.2804	0.145	18.6841
0.15	16.2047	0.15	19.6956
0.155	15.1016	0.155	18.1774
0.16	14.0171	0.16	17.2744
0.165	15.4787	0.165	17.6314
0.17	13.898	0.17	17.2528
0.175	13.4654	0.175	16.1943
0.18	12.9818	0.18	15.5381
0.185	14.4141	0.185	16.56
0.19	13.4397	0.19	16.0517
0.195	13.3184	0.195	15.0392
0.2	13.8667	0.2	16.9497
0.205	13.38	0.205	15.957
0.21	14.2825	0.21	17.254
0.215	14.3049	0.215	15.5576
0.22	14.9661	0.22	16.95
0.225	14.0336	0.225	16.0991
0.23	13.4638	0.23	15.3095
0.235	13.264	0.235	14.4678
0.24	11.8494	0.24	15.0794
0.245	12.6467	0.245	13.658
0.25	10.3166	0.25	12.1671
0.255	11.8693	0.255	14.3593
0.26	11.7537	0.26	13.9597
0.265	9.60364	0.265	12.3704
0.27	10.4898	0.27	11.9593
0.275	10.4221	0.275	12.3612
0.28	8.78771	0.28	10.8932
0.285	9.96762	0.285	10.6659
0.29	9.83117	0.29	11.4944
0.295	8.67264	0.295	9.8188
0.3	9.44054	0.3	10.2046
0.305	9.37687	0.305	11.111
0.31	9.69972	0.31	11.3977
0.315	6.59978	0.315	8.27057
0.32	7.8038	0.32	8.97711
0.325	8.45406	0.325	9.73703
0.33	7.50351	0.33	8.39163
0.335	6.52327	0.335	7.59802
0.34	7.42753	0.34	8.64222
0.345	8.09426	0.345	9.41386
0.35	7.54289	0.35	7.69018
0.355	8.14546	0.355	8.66002
0.36	4.8681	0.36	6.43197
0.365	6.7076	0.365	7.04372
0.37	7.06539	0.37	8.50109
0.375	6.03856	0.375	7.53516
0.38	6.90764	0.38	8.44989
0.385	8.17324	0.385	8.49872
0.39	6.82205	0.39	7.48145
0.395	7.83473	0.395	7.97064
0.4	7.81366	0.4	9.09453
0.405	5.22408	0.405	5.826
0.41	5.15005	0.41	4.75548
0.415	6.11026	0.415	6.21482
0.42	6.8185	0.42	7.29737
0.425	6.05931	0.425	6.04496
0.43	6.74697	0.43	7.1264
0.435	6.21082	0.435	5.63458
0.44	7.21125	0.44	6.39085
0.445	5.90226	0.445	5.66244
0.45	3.61549	0.45	3.03715
0.455	4.80819	0.455	4.73965
0.46	2.98525	0.46	2.04805
0.465	4.67129	0.465	3.55519
0.47	2.21092	0.47	1.72434
0.475	2.3767	0.475	1.5883
0.48	4.14467	0.48	3.1197
0.485	5.07644	0.485	4.63772
0.49	4.0975	0.49	4.09843
0.495	5.38873	0.495	4.94544
0.5	4.68441	0.5	3.89775
0.505	6.03822	0.505	4.50675
0.51	4.75242	0.51	3.90884
0.515	1.5911	0.515	-1.0583
0.52	3.40154	0.52	0.915019
0.525	2.69949	0.525	1.09881
0.53	0.867343	0.53	-0.842895
0.535	2.40044	0.535	1.37171
0.54	2.25909	0.54	0.967541
0.545	3.40933	0.545	2.68435
0.55	2.98077	0.55	1.90677
0.555	3.91556	0.555	3.34347
0.56	3.95083	0.56	1.73027
0.565	4.9971	0.565	2.77652
0.57	4.76156	0.57	4.5556
0.575	4.54228	0.575	2.57583
0.58	4.77208	0.58	3.97256
0.585	6.18529	0.585	3.75324
0.59	4.56166	0.59	2.91544
0.595	5.36874	0.595	3.53794
0.6	3.6752	0.6	2.94672
0.605	4.6712	0.605	3.51269
0.61	6.03564	0.61	3.29344
0.615	4.76226	0.615	2.06861
0.62	2.11922	0.62	-0.54822
0.625	3.04364	0.625	1.15953
0.63	2.05831	0.63	0.761641
0.635	2.06542	0.635	-0.338512
0.64	1.66614	0.64	-0.814723
0.645	2.62234	0.645	0.84746
0.65	2.04766	0.65	0.0283181
0.655	3.25921	0.655	1.0463
0.66	4.15951	0.66	1.79121
0.665	2.77401	0.665	1.05285
0.67	3.75923	0.67	1.74948
0.675	4.48971	0.675	2.2533
0.68	2.47222	0.68	-1.4922
0.685	3.48864	0.685	-0.254529
0.69	3.61695	0.69	1.28046
0.695	0.997107	0.695	-1.54114
0.7	2.3254	0.7	-0.374367
0.705	-0.0177955	0.705	-2.84893
0.71	1.51791	0.71	-1.42196
0.715	2.27403	0.715	0.0162959
0.72	0.657368	0.72	-3.4105
0.725	0.308748	0.725	-3.59948
0.73	0.0239593	0.73	-3.77475
0.735	1.4524	0.735	-2.27438
0.74	2.51486	0.74	-1.16819
0.745	0.358959	0.745	-4.0754
0.75	1.41447	0.75	-2.35279
0.755	2.43853	0.755	-1.32143
0.76	1.53219	0.76	-2.23251
0.765	2.88124	0.765	-1.67112
0.77	3.11517	0.77	-0.500522
0.775	0.719565	0.775	-3.74146
0.78	1.44671	0.78	-2.12091
0.785	2.36478	0.785	-1.30672
0.79	3.04418	0.79	-0.715457
0.795	3.54454	0.795	-0.291405
0.8	3.28512	0.8	0.632698
0.805	2.03921	0.805	-0.982328
0.81	2.74641	0.81	-0.562178
0.815	3.26753	0.815	-0.266557
0.82	2.75756	0.82	-2.50364
0.825	2.62743	0.825	-1.1609
0.83	3.14375	0.83	-0.796686
0.835	0.964706	0.835	-4.6478
0.84	1.85904	0.84	-3.49026
0.845	2.52034	0.845	-2.64177
0.85	1.34145	0.85	-3.69048
0.855	2.09865	0.855	-2.84584
0.86	2.65703	0.86	-2.23211
0.865	1.54927	0.865	-3.60537
0.87	2.2193	0.87	-2.86377
0.875	2.71222	0.875	-2.32738
0.88	1.55529	0.88	-3.75873
0.885	2.18836	0.885	-3.06077
0.89	2.65348	0.89	-2.55719
0.895	2.10111	0.895	-4.6387
0.9	4.22964	0.9	-2.13977
0.905	4.16541	0.905	-1.93641
0.91	2.20353	0.91	-3.23072
0.915	4.28003	0.915	-1.14658
0.92	3.28519	0.92	-3.69366
0.925	3.41639	0.925	-3.20939
0.93	3.50493	0.93	-2.86625
0.935	4.60137	0.935	-0.338104
0.94	4.3862	0.94	-0.73624
0.945	4.21492	0.945	-1.05494
0.95	4.85044	0.95	-2.08798
0.955	4.94035	0.955	-2.50612
0.96	3.99048	0.96	-1.83253
0.965	4.27833	0.965	-2.35774
0.97	5.76774	0.97	-0.724576
0.975	4.33241	0.975	-3.61008
0.98	4.13304	0.98	-3.37982
0.985	5.63886	0.985	-1.56199
0.99	4.48179	0.99	-1.24427
0.995	5.89258	0.995	0.0158658
1	5.28971	1	-0.710195
1.005	3.93596	1.005	-3.71432
1.01	5.46308	1.01	-1.90773
1.015	4.94739	1.015	-2.224
1.02	6.21587	1.02	-0.816156
1.025	7.17158	1.025	0.233882
1.03	5.60184	1.03	-0.0243501
1.035	5.81153	1.035	-1.63556
1.04	6.86027	1.04	-0.435219
1.045	7.65115	1.045	0.459153
1.05	5.69171	1.05	-2.98064
1.055	6.76447	1.055	-1.50088
1.06	5.66938	1.06	-1.82385
1.065	6.74462	1.065	-0.662528
1.07	7.5553	1.07	0.202525
1.075	6.88912	1.075	-1.20697
1.08	7.66275	1.08	-0.237284
1.085	6.58181	1.085	-1.18138
1.09	7.81316	1.09	-0.631476
1.095	8.35902	1.095	0.156838
1.1	7.10724	1.1	-0.9233
1.105	8.59739	1.105	-0.862399
1.11	8.95547	1.11	-0.0589887
1.115	7.71124	1.115	-1.27624
1.12	7.90573	1.12	-0.0168879
1.125	8.43765	1.125	0.539744
1.13	9.2277	1.13	0.564257
1.135	7.39022	1.135	-0.319957
1.14	8.43597	1.14	-0.107069
1.145	8.84257	1.145	0.428429
1.15	8.76473	1.15	1.21097
1.155	9.09238	1.155	1.40997
1.16	7.67688	1.16	-0.112207
1.165	8.27028	1.165	0.391002
1.17	8.33253	1.17	1.1493
1.175	8.76522	1.175	1.33011
1.18	9.09387	1.18	1.45966
1.185	8.95756	1.185	1.93772
1.19	8.85438	1.19	2.2953
1.195	9.163	1.195	2.17556
1.2	9.63714	1.2	1.84117
1.205	9.75547	1.205	1.82573
1.21	9.46142	1.21	2.19505
1.215	9.23994	1.215	2.47106
1.22	9.45983	1.22	2.29015
1.225	9.24194	1.225	2.53537
1.23	9.07759	1.23	2.7183
1.235	8.95338	1.235	2.85453
1.24	8.85928	1.24	2.95574
1.245	8.78777	1.245	3.03066
1.25	8.73319	1.25	3.08589
1.255	9.07826	1.255	2.73939
1.26	8.95426	1.26	2.86041
1.265	8.86032	1.265	2.9502
1.27	9.02746	1.27	2.77804
1.275	8.91046	1.275	2.88935
1.28	8.82177	1.28	2.97186
1.285	8.75432	1.285	3.03277
1.29	8.31584	1.29	3.46443
1.295	8.3679	1.295	3.40533
1.3	10.6969	1.3	4.39996
1.305	10.1685	1.305	4.11735
1.31	9.38442	1.31	4.29138
1.315	9.17727	1.315	4.03909
1.32	8.63404	1.32	4.23586
1.325	10.8984	1.325	5.04054
1.33	9.93473	1.33	5.00243
1.335	9.20596	1.335	4.978
1.34	8.65341	1.34	4.96382
1.345	10.1369	1.345	6.38419
1.35	9.35133	1.35	6.04415
1.355	8.75616	1.355	5.79328
1.36	8.15541	1.36	5.7577
1.365	9.50474	1.365	7.26012
1.37	8.8599	1.37	6.74022
1.375	8.22192	1.375	6.50289
1.38	7.87795	1.38	6.18862
1.385	9.90492	1.385	6.99701
1.39	8.37116	1.39	7.35377
1.395	7.97865	1.395	6.86182
1.4	8.30383	1.4	5.87156
1.405	8.66162	1.405	8.34405
1.41	8.17735	1.41	7.64755
1.415	7.42131	1.415	7.51633
1.42	8.36028	1.42	9.24103
1.425	7.93006	1.425	8.36557
1.43	8.22699	1.43	7.08772
1.435	7.55121	1.435	10.357
1.44	7.92242	1.44	8.62747
1.445	8.3148	1.445	10.5456
1.45	7.46959	1.45	9.82027
1.455	9.11564	1.455	10.3256
1.46	7.52976	1.46	10.2217
1.465	8.51717	1.465	11.2962
1.47	7.59595	1.47	10.4605
1.475	8.26273	1.475	11.8054
1.48	7.38199	1.48	10.8917
1.485	7.33605	1.485	9.59029
1.49	7.41056	1.49	11.8346
1.495	6.7089	1.495	10.9722
1.5	8.46269	1.5	11.3748
1.505	7.73159	1.505	10.42
1.51	6.93104	1.51	9.95469
1.515	7.98521	1.515	11.2806
1.52	6.96574	1.52	10.782
1.525	6.95628	1.525	9.65154
1.53	7.98051	1.53	11.1018
1.535	6.79019	1.535	10.845
1.54	8.21994	1.54	11.6593
1.545	7.87422	1.545	10.3851
1.55	6.83249	1.55	10.2106
1.555	7.8463	1.555	11.6141
1.56	7.95745	1.56	10.013
1.565	6.87654	1.565	9.97517
1.57	7.86097	1.57	11.4813
1.575	7.95012	1.575	9.95704
1.58	7.00114	1.58	9.82854
1.585	6.90417	1.585	9.11621
1.59	6.58441	1.59	8.82781
1.595	7.70753	1.595	10.5782
1.6	6.78734	1.6	10.3506
1.605	7.09893	1.605	9.17695
1.61	7.83379	1.61	11.1252
1.615	7.48931	1.615	10.1792
1.62	6.98395	1.62	9.71552
1.625	8.11634	1.625	11.1861
1.63	7.68816	1.63	10.2636
1.635	9.02398	1.635	11.2445
1.64	8.36654	1.64	10.3367
1.645	8.01346	1.645	9.51476
1.65	9.11675	1.65	10.86
1.655	8.18686	1.655	10.3235
1.66	7.96099	1.66	9.44859
1.665	7.92873	1.665	8.65427
1.67	8.94114	1.67	10.3517
1.675	8.28259	1.675	9.73993
1.68	8.55419	1.68	8.51462
1.685	7.36032	1.685	8.99226
1.69	9.13215	1.69	10.0131
1.695	9.19381	1.695	8.74321
1.7	8.46798	1.7	8.56198
1.705	8.3022	1.705	8.04654
1.71	8.56154	1.71	7.27536
1.715	9.41084	1.715	9.37207
1.72	9.01694	1.72	8.67281
1.725	8.71827	1.725	8.15073
1.73	8.49102	1.73	7.76154
1.735	8.31734	1.735	7.47201
1.74	7.94531	1.74	7.49577
1.745	9.56984	1.745	8.93994
1.75	9.13412	1.75	8.37455
1.755	9.19106	1.755	7.56595
1.76	8.61015	1.76	7.58228
1.765	8.41264	1.765	7.35551
1.77	8.02276	1.77	7.42634
1.775	8.35549	1.775	6.85349
1.78	8.21994	1.78	6.8081
1.785	7.48959	1.785	7.40191
1.79	7.94882	1.79	6.83943
1.795	9.57356	1.795	8.46721
1.8	8.51255	1.8	8.66503
1.805	9.34929	1.805	7.18009
1.81	8.34303	1.81	7.6994
1.815	8.59536	1.815	7.08106
1.82	10.0649	1.82	8.66696
1.825	9.27453	1.825	8.44643
1.83	8.91996	1.83	8.04204
1.835	9.0378	1.835	7.35421
1.84	8.50261	1.84	7.46115
1.845	8.33945	1.845	7.30236
1.85	8.21391	1.85	7.18567
1.855	8.11658	1.855	7.10056
1.86	7.80189	1.86	7.27767
1.865	9.4695	1.865	8.8369
1.87	9.45311	1.87	7.97091
1.875	8.43033	1.875	8.33118
1.88	8.28336	1.88	7.98054
1.885	8.55694	1.885	7.33303
1.89	8.37711	1.89	7.23169
1.895	8.00056	1.895	7.39664
1.9	7.95641	1.9	7.28137
1.905	8.3071	1.905	6.81038
1.91	7.55962	1.91	7.46691
1.915	8.00609	1.915	6.95151
1.92	7.95594	1.92	6.94924
1.925	8.9551	1.925	9.24083
1.93	8.67373	1.93	8.68779
1.935	8.45957	1.935	8.27545
1.94	8.05731	1.94	8.20717
1.945	8.61937	1.945	7.2915
1.95	7.78905	1.95	7.85593
1.955	7.78646	1.955	7.65842
1.96	7.54287	1.96	7.75125
1.965	7.98541	1.965	7.19495
1.97	7.54539	1.97	7.54896
1.975	7.35559	1.975	7.67358
1.98	7.213	1.98	7.76659
1.985	9.24827	1.985	9.02424
1.99	8.6408	1.99	8.79897
1.995	8.42351	1.995	8.39105
2	7.63197	2	8.71305
2.005	8.04544	2.005	7.94677
2.01	7.97058	2.01	7.75637
2.015	7.67282	2.015	7.85455
2.02	7.68781	2.02	7.68922
2.025	7.07048	2.025	8.19314
2.03	8.89306	2.03	9.61566
2.035	8.3675	2.035	9.27264
2.04	8.83714	2.04	8.15095
2.045	7.93756	2.045	8.5609
2.05	7.64454	2.05	8.48608
2.055	7.27616	2.055	8.57797
2.06	7.76563	2.06	7.88053
2.065	7.12231	2.065	8.36725
2.07	7.64698	2.07	7.72453
2.075	7.65555	2.075	7.62681
2.08	7.03343	2.08	8.18146
2.085	7.57399	2.085	7.58968
2.09	8.63441	2.09	9.82105
2.095	8.78599	2.095	8.83593
2.1	8.51478	2.1	8.48143
2.105	7.68284	2.105	8.84351
2.11	7.67912	2.11	8.49427
2.115	7.43475	2.115	8.47334
2.12	7.48984	2.12	8.21871
2.125	7.52812	2.125	8.03021
2.13	7.31525	2.13	8.12984
2.135	7.39397	2.135	7.96562
2.14	7.21143	2.14	8.08345
2.145	7.07437	2.145	8.17143
2.15	7.20994	2.15	7.99847
2.155	7.07004	2.155	8.10975
2.16	7.20349	2.16	7.95427
2.165	8.34045	2.165	10.131
2.17	8.54948	2.17	9.10493
2.175	8.08284	2.175	8.95825
2.18	8.3582	2.18	8.22238
2.185	8.17983	2.185	8.05482
2.19	7.80451	2.19	8.17017
2.195	7.76141	2.195	8.01775
2.2	7.48754	2.2	8.14446
2.205	7.28199	2.205	8.2391
2.21	7.36623	2.21	8.07115
2.215	7.18785	2.215	8.1862
2.22	7.05394	2.22	8.2721
2.225	7.19189	2.225	8.09759
2.23	7.05381	2.23	8.20773
2.235	8.85404	2.235	9.7168
2.24	8.93728	2.24	8.81326
2.245	8.37632	2.245	8.7585
2.25	8.58096	2.25	8.09158
2.255	7.7241	2.255	8.60122
2.26	8.08869	2.26	7.97574
2.265	7.73874	2.265	8.12951
2.27	8.10164	2.27	7.61899
2.275	7.36349	2.275	8.24593
2.28	7.8171	2.28	7.70842
2.285	7.53393	2.285	7.92817
2.29	9.22536	2.29	9.51947
2.295	8.60154	2.295	9.3031
2.3	8.75907	2.3	8.51498
2.305	7.8669	2.305	8.93374
2.31	7.96649	2.31	8.47864
2.315	8.28471	2.315	7.89333
2.32	7.9	2.32	8.07726
2.325	7.61139	2.325	8.21484
2.33	8.02031	2.33	7.69219
2.335	7.94217	2.335	7.68457
2.34	7.64208	2.34	7.91989
2.345	7.41691	2.345	8.09602
2.35	7.87343	2.35	7.60227
2.355	8.87091	2.355	9.90721
2.36	8.9754	2.36	8.97733
2.365	8.43042	2.365	8.90284
2.37	8.6471	2.37	8.22114
2.375	8.18628	2.375	8.33279
2.38	7.84059	2.38	8.41618
2.385	7.9682	2.385	8.09142
2.39	8.30745	2.39	7.60389
2.395	7.93856	2.395	7.86117
2.4	7.66182	2.4	8.05377
2.405	7.45419	2.405	8.19787
2.41	7.92389	2.41	7.68012
2.415	7.65283	2.415	7.91472
2.42	7.44946	2.42	8.09033
2.425	7.5354	2.425	7.98314
2.43	7.35839	2.43	8.14381
2.435	8.89096	2.435	9.92935
2.44	9.01493	2.44	8.9918
2.445	8.48459	2.445	8.91158
2.45	8.08679	2.45	8.85108
2.455	8.41388	2.455	8.17989
2.46	8.42282	2.46	7.91249
2.465	8.04762	2.465	8.09346
2.47	7.76618	2.47	8.22886
2.475	7.55505	2.475	8.33007
2.48	8.02214	2.48	7.78017
2.485	7.74914	2.485	7.99067
2.49	7.54435	2.49	8.14822
2.495	7.39072	2.495	8.26604
2.5	7.90093	2.5	7.72859
2.505	7.66027	2.505	7.94844
2.51	7.47974	2.51	8.11298
2.515	7.34429	2.515	8.23606
2.52	7.86815	2.52	7.70255
2.525	7.63773	2.525	7.92535
2.53	7.85182	2.53	7.70516
2.535	7.63048	2.535	7.92155
2.54	8.08992	2.54	7.45802
2.545	9.47658	2.545	9.39871
2.55	8.86566	2.55	9.20301
2.555	8.79439	2.555	8.66897
2.56	8.35906	2.56	8.64998
2.565	9.04497	2.565	7.62299
2.57	8.55424	2.57	7.85757
2.575	8.18617	2.575	8.03318
2.58	8.53558	2.58	7.53909
2.585	8.17435	2.585	7.79147
2.59	7.90341	2.59	7.98044
2.595	7.70018	2.595	8.12184
2.6	7.54774	2.6	8.22757
2.605	8.05887	2.605	7.68106
2.61	7.81893	2.61	7.89413
2.615	8.0259	2.615	7.66666
2.62	9.46465	2.62	9.543
2.625	8.89281	2.625	9.29906
2.63	8.85088	2.63	8.72885
2.635	9.06305	2.635	8.05728
2.64	8.98586	2.64	7.78962
2.645	8.5461	2.645	7.97044
2.65	8.21628	2.65	8.10574
2.655	7.96892	2.655	8.20692
2.66	8.17035	2.66	7.89555
2.665	8.56503	2.665	7.4181
2.67	8.23778	2.67	7.68298
2.675	7.99234	2.675	7.88134
2.68	7.80827	2.68	8.0298
2.685	7.67022	2.685	8.14084
2.69	7.56668	2.69	8.22382
2.695	7.48903	2.695	8.28574
2.7	7.4308	2.7	8.33188
2.705	8.01261	2.705	7.7407
2.71	8.21264	2.71	7.53333
2.715	8.36775	2.715	7.37242
2.72	8.10222	2.72	7.63329
2.725	7.90308	2.725	7.82864
2.73	7.75373	2.73	7.97484
2.735	8.02866	2.735	7.69724
2.74	7.85301	2.74	7.8706
2.745	8.34675	2.745	7.37483
2.75	8.09378	2.75	7.62597
2.755	8.29101	2.755	7.42707
2.76	8.05708	2.76	7.65946
2.765	7.88163	2.765	7.83344
2.77	7.75005	2.77	7.96361
2.775	7.65136	2.775	8.06094
2.78	7.57736	2.78	8.13363
2.785	7.52186	2.785	8.18783
2.79	9.77112	2.79	9.2681
2.795	9.18392	2.795	9.05039
2.8	9.13049	2.8	8.49987
2.805	9.09553	2.805	8.08161
2.81	8.68747	2.81	8.14949
2.815	8.38145	2.815	8.20011
2.82	8.5389	2.82	7.85084
2.825	8.27515	2.825	7.97046
2.83	8.07737	2.83	8.05989
2.835	8.55453	2.835	7.50119
2.84	8.28916	2.84	7.70515
2.845	8.47711	2.845	7.47088
2.85	8.23622	2.85	7.67675
2.855	7.66864	2.855	8.21782
2.86	8.01179	2.86	7.85451
2.865	7.88732	2.865	7.96361
2.87	7.79399	2.87	8.04514
2.875	7.72402	2.875	8.106
2.88	8.05851	2.88	7.7644
2.885	7.92754	2.885	7.88978
2.89	7.82934	2.89	7.98353
2.895	8.14266	2.895	7.6666
2.9	7.99582	2.9	7.81048
2.905	7.88571	2.905	7.9181
2.91	7.80315	2.91	7.99852
2.915	7.74126	2.915	8.05855
2.92	7.69487	2.92	8.10328
2.925	7.6601	2.925	8.13654
2.93	8.021	2.93	7.77424
2.935	7.90983	2.935	7.8841
2.94	7.82648	2.94	7.9662
2.945	8.38948	2.945	7.402
2.95	8.18848	2.95	7.60184
2.955	8.03776	2.955	7.75142
2.96	7.92474	2.96	7.86332
2.965	8.22695	2.965	7.56001
2.97	8.07177	2.97	7.71409
2.975	7.95542	2.975	7.82937
2.98	8.25512	2.98	7.52859
2.985	8.09806	2.985	7.68457
2.99	7.9803	2.99	7.80127
2.995	7.892	2.995	7.88851
3	8.21275	3	7.56669
3.005	8.07147	3.005	7.70691
3.01	7.96554	3.01	7.81178
3.015	7.88612	3.015	7.89014
3.02	7.82659	3.02	7.94862
3.025	9.44736	3.025	9.65758
3.03	9.01209	3.03	9.28814
3.035	8.68568	3.035	9.01079
3.04	8.44092	3.04	8.8025
3.045	8.2574	3.045	8.64602
3.05	8.50675	3.05	8.14143
3.055	8.31195	3.055	8.14459
3.06	8.16589	3.06	8.14668
3.065	8.05639	3.065	8.14798
3.07	8.36126	3.07	7.76173
3.075	8.20809	3.075	7.85364
3.08	8.09327	3.08	7.9223
3.085	8.00719	3.085	7.97353
3.09	7.94268	3.09	8.01167
3.095	7.89434	3.095	8.04001
3.1	7.23266	3.1	8.68647
3.105	7.74666	3.105	8.16083
3.11	8.37582	3.11	7.52271
3.115	8.22446	3.115	7.66712
3.12	8.11099	3.12	7.77515
3.125	7.63898	3.125	8.24286
3.13	8.05384	3.13	7.82455
3.135	7.35768	3.135	8.51789
3.14	7.45888	3.14	8.41435
3.145	7.53483	3.145	8.33643
3.15	7.97878	3.15	7.89077
3.155	7.92992	3.155	7.93812
3.16	7.89332	3.16	7.97336
3.165	7.86592	3.165	7.99952
3.17	8.23236	3.17	7.63192
3.175	8.12537	3.175	7.73782
3.18	8.04517	3.18	7.81697
3.185	7.98507	3.185	7.87606
3.19	8.32698	3.19	7.53316
3.195	8.2016	3.195	7.65758
3.2	8.10761	3.2	7.75062
3.205	8.03716	3.205	7.82014
3.21	7.98437	3.21	7.872
3.215	7.94482	3.215	7.91062
3.22	7.9152	3.22	7.93932
3.225	7.89303	3.225	7.96058
3.23	7.87645	3.23	7.97624
3.235	7.86407	3.235	7.98772
3.24	8.24176	3.24	7.60912
3.245	7.51774	3.245	8.33224
3.25	8.22352	3.25	7.62555
3.255	8.12962	3.255	7.71854
3.26	7.82071	3.26	8.02654
3.265	7.83048	3.265	8.01587
3.27	7.83786	3.27	8.00759
3.275	7.84343	3.275	8.00112
3.28	8.2346	3.28	7.60904
3.285	8.14616	3.285	7.69658
3.29	8.07987	3.29	7.76197
3.295	8.0302	3.295	7.81073
3.3	8.37993	3.3	7.46009
3.305	7.87347	3.305	7.96565
3.31	8.26248	3.31	7.57574
3.315	8.17241	3.315	7.6649
3.32	8.10491	3.32	7.73151
3.325	7.81579	3.325	8.01972
3.33	7.8404	3.33	7.99421
3.335	8.24585	3.335	7.58785
3.34	8.16812	3.34	7.66468
3.345	8.10986	3.345	7.72204
3.35	8.06621	3.35	7.76479
3.355	8.03351	3.355	7.79658
3.36	8.39598	3.36	7.4332
3.365	8.28601	3.365	7.54227
3.37	9.86898	3.37	9.2892
3.375	9.40537	3.375	8.94825
3.38	9.05772	3.38	8.69229
3.385	8.55852	3.385	8.7386
3.39	8.42558	3.39	8.53168
3.395	8.71289	3.395	7.9893
3.4	8.54657	3.4	7.96412
3.405	8.80883	3.405	7.55805
3.41	8.62373	3.41	7.63511
3.415	7.85948	3.415	8.31813
3.42	7.90963	3.42	8.20688
3.425	7.9473	3.425	8.12319
3.43	7.97562	3.43	8.06018
3.435	8.38386	3.435	7.62573
3.44	8.30824	3.44	7.6815
3.445	8.25158	3.445	7.72309
3.45	8.20915	3.45	7.75403
3.455	8.17739	3.455	7.77698
3.46	8.15362	3.46	7.79395
3.465	8.52281	3.465	7.41949
3.47	8.41789	3.47	7.52025
3.475	8.33927	3.475	7.59558
3.48	7.65488	3.48	8.27731
3.485	7.76492	3.485	8.16508
3.49	7.84751	3.49	8.08067
3.495	7.90951	3.495	8.01711
3.5	8.34302	3.5	7.58225
3.505	8.28634	3.505	7.63772
3.51	8.2439	3.51	7.67907
3.515	8.21212	3.515	7.70984
3.52	8.18835	3.52	7.73268
3.525	8.17058	3.525	7.74955
3.53	8.15731	3.53	7.76196
3.535	8.53437	3.535	7.38407
3.54	7.80988	3.54	8.10776
3.545	7.88984	3.545	8.027
3.55	7.94987	3.55	7.96619
3.555	7.99495	3.555	7.92033
3.56	8.02882	3.56	7.88569
3.565	8.05428	3.565	7.85947
3.57	8.46038	3.57	7.45261
3.575	8.38315	3.575	7.52908
3.58	8.32528	3.58	7.58619
3.585	7.65646	3.585	8.25426
3.59	7.77818	3.59	8.13179
3.595	8.25647	3.595	7.65274
3.6	8.23338	3.6	7.67508
3.605	8.21612	3.605	7.69159
3.61	8.20323	3.61	7.70373
3.615	8.19362	3.615	7.71258
3.62	8.18648	3.62	7.71898
3.625	8.18117	3.625	7.72353
3.63	7.55177	3.63	8.35218
3.635	7.70305	3.635	8.20015
3.64	8.20351	3.64	7.69894
3.645	8.19705	3.645	7.70465
3.65	8.19226	3.65	7.70869
3.655	8.18873	3.655	7.71148
3.66	8.57308	3.66	7.32637
3.665	7.85406	3.665	8.04465
3.67	7.93811	3.67	7.95984
3.675	8.00122	3.675	7.89599
3.68	8.0486	3.68	7.84786
3.685	8.08419	3.685	7.81152
3.69	8.11094	3.69	7.78402
3.695	8.13106	3.695	7.76315
3.7	8.1462	3.7	7.74725
3.705	8.15761	3.705	7.73509
3.71	8.16623	3.71	7.72572
3.715	8.17275	3.715	7.71846
3.72	7.93916	3.72	7.95129
3.725	8.00543	3.725	7.88427
3.73	8.05519	3.73	7.83377
3.735	8.09256	3.735	7.79564
3.74	8.12064	3.74	7.76681
3.745	8.14176	3.745	7.74494
3.75	6.87921	3.75	5.67596
3.755	7.20135	3.755	6.15671
3.76	7.443	3.76	6.51702
3.765	6.99879	3.765	7.41247
3.77	7.28893	3.77	7.46052
3.775	7.50658	3.775	7.4963
3.78	7.66985	3.78	7.52287
3.785	7.79234	3.785	7.54254
3.79	7.88424	3.79	7.55703
3.795	7.32772	3.795	8.19312
3.8	7.53363	3.8	8.04666
3.805	7.6881	3.805	7.93655
3.81	8.19094	3.81	7.46676
3.815	8.18623	3.815	7.49603
3.82	8.18273	3.82	7.51772
3.825	7.55466	3.825	8.1592
3.83	8.3324	3.83	7.39131
3.835	7.66698	3.835	8.06388
3.84	7.79122	3.84	7.94478
3.845	7.88444	3.845	7.85519
3.85	7.95438	3.85	7.78774
3.855	8.39382	3.855	7.34995
3.86	8.34156	3.86	7.40321
3.865	9.9678	3.865	9.1083
3.87	9.53664	3.87	8.73598
3.875	8.58784	3.875	9.08198
3.88	8.49956	3.88	8.71798
3.885	8.4334	3.885	8.44473
3.89	8.38384	3.89	8.23956
3.895	8.73366	3.895	7.69849
3.9	8.61421	3.9	7.67432
3.905	8.52468	3.905	7.65595
3.91	8.45758	3.91	7.64194
3.915	7.78183	3.915	8.25667
3.92	8.52381	3.92	7.46873
3.925	7.8316	3.925	8.12629
3.93	7.93577	3.93	7.99595
3.935	8.01394	3.935	7.89795
3.94	8.07262	3.94	7.82422
3.945	8.11668	3.945	7.76868
3.95	8.14977	3.95	7.72679
3.955	8.17464	3.955	7.69514
3.96	8.19335	3.96	7.67116
3.965	8.20743	3.965	7.65294
3.97	8.21803	3.97	7.63903
3.975	8.22604	3.975	7.62837
3.98	7.60661	3.98	8.24561
3.985	8.15231	3.985	7.69809
3.99	8.17977	3.99	7.66907
3.995	8.20041	3.995	7.64708
4	8.21595	4	7.63034
4.005	8.22764	4.005	7.61756
4.01	8.23647	4.01	7.60773
4.015	8.24313	4.015	7.60012
4.02	8.24818	4.02	7.59418
4.025	8.25202	4.025	7.58949
4.03	7.62946	4.03	8.21121
4.035	7.78586	4.035	8.054
4.04	7.90322	4.04	7.93585
4.045	7.99128	4.045	7.847
4.05	8.05737	4.05	7.78013
4.055	8.10699	4.055	7.72975
4.06	8.14425	4.06	7.69172
4.065	8.17225	4.065	7.66296
4.07	8.19329	4.07	7.64116
4.075	8.20912	4.075	7.62457
4.08	7.59557	4.08	8.23738
4.085	7.75872	4.085	8.07347
4.09	7.88113	4.09	7.95031
4.095	7.97298	4.095	7.8577
4.1	8.04192	4.1	7.78801
4.105	8.09367	4.105	7.73551
4.11	8.13253	4.11	7.6959
4.115	8.16172	4.115	7.66596
4.12	8.18367	4.12	7.64327
4.125	8.20017	4.125	7.62601
4.13	8.21259	4.13	7.61284
4.135	7.59648	4.135	8.2282
4.14	7.75771	4.14	8.06622
4.145	7.87868	4.145	7.9445
4.15	7.96946	4.15	7.85297
4.155	8.03758	4.155	7.7841
4.16	8.08872	4.16	7.73221
4.165	8.51407	4.165	7.30611
4.17	8.45127	4.17	7.36816
4.175	10.0696	4.175	9.07987
4.18	9.63253	4.18	8.71254
4.185	8.67931	4.185	9.06231
4.19	9.21321	4.19	8.07567
4.195	8.36495	4.195	8.58423
4.2	8.35209	4.2	8.34217
4.205	8.34251	4.205	8.1604
4.21	8.33539	4.21	8.02387
4.215	8.33011	4.215	7.92125
4.22	8.32622	4.22	7.84407
4.225	8.32337	4.225	7.78598
4.23	8.32129	4.23	7.74219
4.235	7.93285	4.235	8.09609
4.24	8.4104	4.24	7.59248
4.245	7.76128	4.245	8.22191
4.25	8.52325	4.25	7.44502
4.255	8.47152	4.255	7.48541
4.26	7.80731	4.26	8.14097
4.265	7.93249	4.265	8.00915
4.27	8.02644	4.27	7.91007
4.275	8.09696	4.275	7.83555
4.28	8.14992	4.28	7.77945
4.285	8.1897	4.285	7.73716
4.29	8.2196	4.29	7.70523
4.295	8.24209	4.295	7.68107
4.3	8.25901	4.3	7.66274
4.305	8.27177	4.305	7.64878
4.31	7.65593	4.31	8.26358
4.315	7.81738	4.315	8.10119
4.32	7.93853	4.32	7.97919
4.325	8.02945	4.325	7.88748
4.33	8.09771	4.33	7.81848
4.335	8.14896	4.335	7.76652
4.34	8.18747	4.34	7.72734
4.345	8.21641	4.345	7.69774
4.35	8.23818	4.35	7.67533
4.355	8.25456	4.355	7.65831
4.36	8.26692	4.36	7.64534
4.365	7.65077	4.365	8.26087
4.37	7.81199	4.37	8.09904
4.375	7.93296	4.375	7.97746
4.38	8.02376	4.38	7.88606
4.385	8.09191	4.385	7.8173
4.39	8.14309	4.39	7.76552
4.395	8.18154	4.395	7.72648
4.4	8.21043	4.4	7.69698
4.405	8.23217	4.405	7.67465
4.41	8.24853	4.41	7.65769
4.415	7.87392	4.415	8.0317
4.42	7.97488	4.42	7.93014
4.425	8.05067	4.425	7.85376
4.43	8.10757	4.43	7.79626
4.435	7.52483	4.435	8.3784
4.44	7.7111	4.44	8.19153
4.445	7.85087	4.445	8.05117
4.45	7.95576	4.45	7.94568
4.455	8.03448	4.455	7.86636
4.46	8.09359	4.46	7.80666
4.465	8.13798	4.465	7.76168
4.47	8.17133	4.47	7.72773
4.475	8.1964	4.475	7.70205
4.48	8.21527	4.48	7.68259
4.485	8.22948	4.485	7.66778
4.49	8.2402	4.49	7.65647
4.495	8.2483	4.495	7.64777
4.5	8.25443	4.5	7.64104
4.505	7.63362	4.505	8.26126
4.51	7.79133	4.51	8.10295
4.515	7.90968	4.515	7.984
4.52	7.9985	4.52	7.89459
4.525	8.06518	4.525	7.82731
4.53	8.11525	4.53	7.77665
4.535	8.15285	4.535	7.73844
4.54	8.18112	4.54	7.70958
4.545	8.20238	4.545	7.68773
4.55	8.21839	4.55	7.67112
4.555	8.23045	4.555	7.65846
4.56	7.61407	4.56	8.27424
4.565	7.77513	4.565	8.11259
4.57	7.89597	4.57	7.99115
4.575	7.98667	4.575	7.89986
4.58	8.05475	4.58	7.83118
4.585	8.10586	4.585	7.77947
4.59	8.14426	4.59	7.74048
4.595	8.17312	4.595	7.71102
4.6	8.19482	4.6	7.68873
4.605	8.21115	4.605	7.67179
4.61	8.22346	4.61	7.65889
4.615	8.23275	4.615	7.649
4.62	8.23978	4.62	7.64138
4.625	8.24511	4.625	7.63545
4.63	8.24917	4.63	7.6308
4.635	8.25227	4.635	7.6271
4.64	8.25465	4.64	7.62412
4.645	7.63102	4.645	8.24716
4.65	7.78662	4.65	8.09096
4.655	7.90338	4.655	7.9736
4.66	7.99101	4.66	7.88538
4.665	8.05679	4.665	7.819
4.67	8.10618	4.67	7.76901
4.675	8.14328	4.675	7.73131
4.68	8.17117	4.68	7.70283
4.685	8.19214	4.685	7.68126
4.69	8.20792	4.69	7.66488
4.695	8.21982	4.695	7.65239
4.7	6.56341	4.7	5.97741
4.705	6.97202	4.705	6.37185
4.71	7.27853	4.71	6.66745
4.715	6.88296	4.715	7.51441
4.72	6.82265	4.72	7.91307
4.725	7.15932	4.725	7.82998
4.73	7.41186	4.73	7.76744
4.735	7.60131	4.735	7.72031
4.74	8.13037	4.74	7.29778
4.745	8.14535	4.745	7.36253
4.75	8.15661	4.75	7.41087
4.755	8.1651	4.755	7.4469
4.76	8.1715	4.76	7.47369
4.765	8.17634	4.765	7.49357
4.77	8.18001	4.77	7.50824
4.775	7.55732	4.775	8.14451
4.78	9.37901	4.78	9.66361
4.785	9.09443	4.785	9.15183
4.79	8.88106	4.79	8.7678
4.795	8.72109	4.795	8.47957
4.8	8.60116	4.8	8.26319
4.805	8.51127	4.805	8.1007
4.81	8.44391	4.81	7.97863
4.815	8.0065	4.815	8.27381
4.82	8.44731	4.82	7.72619
4.825	8.39611	4.825	7.69713
4.83	8.35776	4.83	7.67513
4.835	7.94211	4.835	8.04537
4.84	7.77376	4.84	8.17952
4.845	7.88896	4.845	8.03852
4.85	8.21395	4.85	7.69403
4.855	7.97781	4.855	7.91539
4.86	8.04216	4.86	7.83981
4.865	7.70354	4.865	8.16986
4.87	8.21843	4.87	7.64839
4.875	8.22279	4.875	7.63894
4.88	7.83917	4.88	8.0186
4.885	7.93338	4.885	7.92128
4.89	8.39104	4.89	7.46113
4.895	7.96552	4.895	7.88463
4.9	8.0283	4.9	7.82019
4.905	8.46239	4.905	7.3847
4.91	8.40615	4.91	7.43975
4.915	7.97707	4.915	7.86778
4.92	8.03719	4.92	7.80673
4.925	8.46928	4.925	7.3738
4.93	8.41153	4.93	7.43076
4.935	8.36828	4.935	7.47327
4.94	7.71041	4.94	8.13043
4.945	7.84034	4.945	7.99983
4.95	7.93784	4.95	7.90167
4.955	8.01102	4.955	7.82786
4.96	7.67901	4.96	8.15923
4.965	8.19886	4.965	7.63875
4.97	8.20695	4.97	7.63005
4.975	8.21306	4.975	7.62333
4.98	8.2177	4.98	7.61808
4.985	8.22124	4.985	7.61394
4.99	8.22394	4.99	7.61063
4.995	8.22603	4.995	7.60795
5	21.377	5	20.755
5.005	21.3957	5.005	20.7706
5.01	21.4141	5.01	20.7865
5.015	21.4324	5.015	20.8025
5.02	20.825	5.02	21.4442
5.025	20.9972	5.025	21.3064
5.03	21.1307	5.03	21.2071
5.035	21.2353	5.035	21.1369
5.04	21.3181	5.04	21.0883
5.045	21.3847	5.045	21.0561
5.05	21.439	5.05	21.0361
5.055	21.4842	5.055	21.0252
5.06	21.5225	5.06	21.0212
5.065	21.1686	5.065	21.4094
5.07	19.6242	5.07	19.6574
5.075	20.1211	5.075	19.9984
5.08	20.4982	5.08	20.2583
5.085	20.7854	5.085	20.4574
5.09	21.0052	5.09	20.6108
5.095	21.1745	5.095	20.7301
5.1	21.3058	5.1	20.8236
5.105	21.4087	5.105	20.8979
5.11	20.2119	5.11	18.9055
5.115	20.2007	5.115	19.835
5.12	21.204	5.12	19.5288
5.125	21.7245	5.125	19.5397
5.13	21.3505	5.13	20.3208
5.135	19.7908	5.135	18.8635
5.14	20.2763	5.14	19.4255
5.145	20.6448	5.145	19.8511
5.15	19.2601	5.15	18.509
5.155	19.8769	5.155	19.1574
5.16	20.3438	5.16	19.6478
5.165	20.6983	5.165	20.0196
5.17	20.3155	5.17	17.6248
5.175	20.053	5.175	19.1143
5.18	19.4439	5.18	17.3213
5.185	17.728	5.185	17.2148
5.19	18.7196	5.19	18.1666
5.195	18.0407	5.195	16.9806
5.2	18.7068	5.2	18.2259
5.205	19.0375	5.205	16.0061
5.21	18.0288	5.21	15.5773
5.215	17.6764	5.215	18.1615
5.22	18.2485	5.22	15.9407
5.225	18.4606	5.225	17.802
5.23	17.9687	5.23	16.5263
5.235	18.486	5.235	17.9931
5.24	16.0777	5.24	15.2361
5.245	16.6356	5.245	14.0851
5.25	17.6058	5.25	15.9798
5.255	14.2083	5.255	11.5417
5.26	13.7027	5.26	12.7529
5.265	16.2273	5.265	14.0672
5.27	12.8922	5.27	10.2969
5.275	13.3004	5.275	11.1421
5.28	10.2651	5.28	8.43434
5.285	11.9054	5.285	9.06902
5.29	14.5541	5.29	11.4359
5.295	9.88797	5.295	6.548
5.3	10.9485	5.3	8.20569
5.305	7.124	5.305	4.05487
5.31	8.42871	5.31	6.6522
5.315	6.83446	5.315	4.48954
5.32	8.54784	5.32	6.54008
5.325	9.82201	5.325	8.06686
5.33	7.43595	5.33	5.86999
5.335	8.93725	5.335	7.51292
5.34	10.6777	5.34	8.10841
5.345	10.0704	5.345	7.1147
5.35	10.2474	5.35	9.01638
5.355	9.32701	5.355	8.14266
5.36	7.33268	5.36	5.40918
5.365	8.74571	5.365	7.03132
5.37	8.12892	5.37	6.57111
5.375	7.64064	5.375	6.19999
5.38	8.91408	5.38	7.56104
5.385	7.80557	5.385	7.29187
5.39	7.7172	5.39	6.29512
5.395	8.52168	5.395	7.95566
5.4	9.49555	5.4	8.8076
5.405	8.54919	5.405	7.76952
5.41	9.4789	5.41	8.63019
5.415	10.1648	5.415	9.264
5.42	7.33692	5.42	6.39686
5.425	8.26779	5.425	7.77505
5.43	9.19582	5.43	8.55551
5.435	6.54951	5.435	5.79826
5.44	7.85497	5.44	7.02024
5.445	8.82244	5.445	7.92485
5.45	6.20561	5.45	5.26062
5.455	7.14613	5.455	6.93922
5.46	8.22168	5.46	7.80433
5.465	5.68581	5.465	5.11037
5.47	6.68695	5.47	6.76659
5.475	7.80787	5.475	7.61481
5.48	5.30593	5.48	4.90809
5.485	6.0939	5.485	6.79317
5.49	7.29624	5.49	7.57155
5.495	4.85527	5.495	4.81235
5.5	6.31435	5.5	6.03249
5.505	7.39665	5.505	6.93534
5.51	3.58712	5.51	2.21705
5.515	5.28868	5.515	4.00053
5.52	3.87491	5.52	4.67279
5.525	5.45845	5.525	5.81032
5.53	6.63394	5.53	6.65104
5.535	2.50716	5.535	2.27293
5.54	4.35249	5.54	3.9295
5.545	5.72419	5.545	5.15938
5.55	6.74066	5.55	6.06923
5.555	7.10373	5.555	7.12597
5.56	7.50702	5.56	7.76259
5.565	4.70773	5.565	4.65522
5.57	5.89762	5.57	5.61381
5.575	7.16454	5.575	5.9331
5.58	3.76412	5.58	3.8364
5.585	5.12635	5.585	4.92961
5.59	6.13547	5.59	5.73672
5.595	3.54896	5.595	2.99844
5.6	4.89824	5.6	4.23365
5.605	5.89756	5.605	5.14717
5.61	4.58205	5.61	4.54094
5.615	3.71155	5.615	3.91549
5.62	6.60364	5.62	6.50829
5.625	5.44368	5.625	5.12362
5.63	6.59878	5.63	5.33604
5.635	7.07044	5.635	5.86417
5.64	5.50744	5.64	4.82034
5.645	6.21464	5.645	5.43386
5.65	6.73218	5.65	5.88088
5.655	5.82898	5.655	4.15066
5.66	4.74229	5.66	3.20717
5.665	7.2306	5.665	5.80264
5.67	5.14209	5.67	5.04521
5.675	5.83687	5.675	5.49151
5.68	6.34492	5.68	5.81296
5.685	5.43447	5.685	3.98841
5.69	6.00758	5.69	4.63943
5.695	5.79883	5.695	5.73982
5.7	6.63936	5.7	5.54153
5.705	7.2617	5.705	5.37434
5.71	8.99883	5.71	7.28281
5.715	5.06829	5.715	3.9576
5.72	5.65037	5.72	4.51061
5.725	3.12984	5.725	1.19415
5.73	5.81146	5.73	4.04231
5.735	6.15849	5.735	4.514
5.74	4.50152	5.74	3.42735
5.745	5.13773	5.745	4.00824
5.75	7.65387	5.75	5.70875
5.755	6.21638	5.755	3.64915
5.76	6.78083	5.76	3.73661
5.765	7.84879	5.765	6.46127
5.77	7.60871	5.77	6.21693
5.775	7.80214	5.775	5.63304
5.78	9.21728	5.78	7.22867
5.785	6.94887	5.785	5.0954
5.79	8.55035	5.79	6.79798
5.795	10.1394	5.795	7.68873
5.8	9.28492	5.8	7.07402
5.805	10.2959	5.805	8.26461
5.81	8.76428	5.81	8.11838
5.815	10.2776	5.815	8.65009
5.82	9.36632	5.82	7.76607
5.825	9.44316	5.825	6.31535
5.83	8.72348	5.83	5.97722
5.835	9.83552	5.835	7.37518
5.84	9.00504	5.84	6.75891
5.845	10.034	5.845	7.94824
5.85	10.8065	5.85	8.84088
5.855	11.3868	5.855	9.51101
5.86	10.5445	5.86	7.9619
5.865	11.1826	5.865	8.83344
5.87	11.6621	5.87	9.48773
5.875	10.3571	5.875	8.31367
5.88	10.7916	5.88	9.32315
5.885	11.3597	5.885	9.83946
5.89	10.1213	5.89	8.5619
5.895	10.8441	5.895	9.25521
5.9	9.72171	5.9	8.11038
5.905	10.5316	5.905	8.90322
5.91	11.3783	5.91	9.25988
5.915	11.7728	5.915	9.76934
5.92	12.0694	5.92	10.152
5.925	10.6273	5.925	8.77417
5.93	11.1974	5.93	9.39224
5.935	11.6257	5.935	9.85633
5.94	11.9478	5.94	10.2049
5.945	12.1901	5.945	10.467
5.95	10.7072	5.95	8.99861
5.955	10.8598	5.955	9.93572
5.96	11.3568	5.96	10.2572
5.965	11.7304	5.965	10.4989
5.97	9.95898	5.97	9.40217
5.975	10.277	5.975	10.2361
5.98	10.8981	5.98	10.4802
5.985	11.6032	5.985	10.4253
5.99	9.83901	5.99	9.34757
5.995	10.5494	5.995	9.80878
6	10.6959	6	10.5421
6.005	11.1884	6.005	10.7107
6.01	11.5585	6.01	10.8377
6.015	9.78448	6.015	9.65496
6.02	10.4874	6.02	10.0374
6.025	10.2414	6.025	11.0986
6.03	10.4344	6.03	11.5182
6.035	9.53491	6.035	9.54752
6.04	10.2704	6.04	9.96228
6.045	10.4358	6.045	10.6608
6.05	10.5555	6.05	11.1901
6.055	8.97541	6.055	9.9273
6.06	9.43685	6.06	10.6366
6.065	10.404	6.065	10.5486
6.07	10.8886	6.07	10.7244
6.075	10.8658	6.075	11.2436
6.08	9.17892	6.08	9.97318
6.085	9.5602	6.085	10.6767
6.09	10.2287	6.09	10.8229
6.095	10.3437	6.095	11.3199
6.1	8.76022	6.1	10.0328
6.105	9.60596	6.105	10.3368
6.11	10.4794	6.11	10.3267
6.115	10.5068	6.115	10.9479
6.12	8.85752	6.12	9.75384
6.125	8.88003	6.125	10.9016
6.13	9.66125	6.13	10.999
6.135	10.4863	6.135	10.834
6.14	8.81198	6.14	9.67348
6.145	9.58958	6.145	10.0725
6.15	9.78643	6.15	10.7591
6.155	8.26419	6.155	9.61401
6.16	9.15585	6.16	10.0246
6.165	9.43822	6.165	10.7198
6.17	10.271	6.17	10.6211
6.175	8.36383	6.175	9.74894
6.18	9.44674	6.18	9.88421
6.185	9.63112	6.185	10.6143
6.19	8.09949	6.19	9.5019
6.195	8.59712	6.195	10.3238
6.2	9.35274	6.2	10.5587
6.205	9.92	6.205	10.7352
6.21	8.91912	6.21	8.96389
6.215	9.19153	6.215	9.91493
6.22	9.77822	6.22	10.2466
6.225	8.16641	6.225	9.21721
6.23	8.99082	6.23	9.71443
6.235	9.60963	6.235	10.0876
6.24	8.02189	6.24	9.08927
6.245	8.86433	6.245	9.60979
6.25	9.73518	6.25	9.76187
6.255	8.482	6.255	8.45218
6.26	8.80652	6.26	9.50796
6.265	9.43225	6.265	9.91814
6.27	8.23661	6.27	8.5606
6.275	8.99122	6.275	9.19352
6.28	9.55762	6.28	9.66841
6.285	9.98287	6.285	10.0248
6.29	10.3023	6.29	10.2922
6.295	10.5422	6.295	10.493
6.3	10.3357	6.3	11.0308
6.305	8.89775	6.305	9.38698
6.31	9.47059	6.31	9.80522
6.315	10.5261	6.315	9.49359
6.32	10.6949	6.32	9.88332
6.325	10.822	6.325	10.1758
6.33	9.25229	6.33	8.72991
6.335	9.72632	6.335	9.29655
6.34	10.0823	6.34	9.72169
6.345	10.3496	6.345	10.0407
6.35	10.5505	6.35	10.2801
6.355	10.7016	6.355	10.4598
6.36	10.8154	6.36	10.5947
6.365	9.23569	6.365	9.0307
6.37	9.70221	6.37	9.5087
6.375	10.0525	6.375	9.86733
6.38	10.3156	6.38	10.1364
6.385	10.9003	6.385	9.95146
6.39	10.9573	6.39	10.1947
6.395	11.0004	6.395	10.3773
6.4	9.36778	6.4	8.84898
6.405	9.79456	6.405	9.35374
6.41	10.115	6.41	9.73243
6.415	10.3557	6.415	10.0166
6.42	10.5366	6.42	10.2298
6.425	10.6727	6.425	10.3898
6.43	11.4006	6.43	9.88446
6.435	11.7105	6.435	9.74189
6.44	11.5615	6.44	10.0169
6.445	9.78472	6.445	8.55795
6.45	10.1034	6.45	9.1147
6.455	10.3427	6.455	9.53235
6.46	10.5226	6.46	9.84568
6.465	10.6578	6.465	10.0808
6.47	11.1465	6.47	9.87025
6.475	11.1316	6.475	10.0943
6.48	11.1207	6.48	10.2625
6.485	9.44752	6.485	8.72326
6.49	9.84385	6.49	9.21984
6.495	10.1414	6.495	9.59234
6.5	10.3649	6.5	9.8718
6.505	10.9199	6.505	9.69452
6.51	10.9545	6.51	9.9435
6.515	9.31544	6.515	8.46492
6.52	9.73735	6.52	9.00693
6.525	10.0541	6.525	9.4135
6.53	10.292	6.53	9.71848
6.535	10.4707	6.535	9.94727
6.54	10.605	6.54	10.1189
6.545	10.7061	6.545	10.2477
6.55	10.7822	6.55	10.3444
6.555	10.8396	6.555	10.4169
6.56	10.883	6.56	10.4714
6.565	10.9158	6.565	10.5123
6.57	10.9408	6.57	10.543
6.575	10.9598	6.575	10.5661
6.58	9.30898	6.58	8.91813
6.585	9.72206	6.585	9.33306
6.59	10.0322	6.59	9.64429
6.595	10.265	6.595	9.87775
6.6	10.44	6.6	10.0529
6.605	10.5715	6.605	10.1843
6.61	10.6704	6.61	10.2829
6.615	10.7449	6.615	10.3568
6.62	10.8011	6.62	10.4123
6.625	10.8435	6.625	10.454
6.63	10.8756	6.63	10.4853
6.635	9.23455	6.635	8.84342
6.64	9.65495	6.64	9.26291
6.645	9.97053	6.645	9.57755
6.65	10.2075	6.65	9.81355
6.655	10.3855	6.655	9.99057
6.66	10.5192	6.66	10.1234
6.665	10.6199	6.665	10.223
6.67	10.6956	6.67	10.2977
6.675	10.3657	6.675	10.7407
6.68	10.8874	6.68	10.3041
6.685	10.5101	6.685	10.7456
6.69	10.6093	6.69	10.6948
6.695	10.684	6.695	10.6567
6.7	9.07484	6.7	8.96281
6.705	9.51914	6.705	9.34325
6.71	9.85263	6.71	9.62859
6.715	10.103	6.715	9.84259
6.72	10.291	6.72	10.0031
6.725	10.4323	6.725	10.1235
6.73	10.5385	6.73	10.2137
6.735	10.6185	6.735	10.2815
6.74	10.6786	6.74	10.3322
6.745	10.3371	6.745	10.7573
6.75	10.4631	6.75	10.6942
6.755	10.5578	6.755	10.6469
6.76	8.96371	6.76	8.94597
6.765	9.41927	6.765	9.32118
6.77	9.76117	6.77	9.60256
6.775	10.0178	6.775	9.81358
6.78	10.2106	6.78	9.97183
6.785	10.3554	6.785	10.0905
6.79	10.4642	6.79	10.1795
6.795	10.1591	6.795	10.6331
6.8	10.6993	6.8	10.2045
6.805	10.3359	6.805	10.6519
6.81	10.4455	6.81	10.6055
6.815	10.5279	6.815	10.5707
6.82	10.5899	6.82	10.5446
6.825	8.97131	6.825	8.8596
6.83	9.40845	6.83	9.2467
6.835	9.73652	6.835	9.53699
6.84	9.98279	6.84	9.75466
6.845	10.1677	6.845	9.91788
6.85	10.3066	6.85	10.0403
6.855	10.411	6.855	10.132
6.86	10.1026	6.86	10.5877
6.865	10.2534	6.865	10.5476
6.87	9.74116	6.87	11.1429
6.875	9.98051	6.875	10.9661
6.88	10.1602	6.88	10.8335
6.885	10.2952	6.885	10.734
6.89	10.3967	6.89	10.6593
6.895	10.473	6.895	10.6033
6.9	10.5305	6.9	10.5612
6.905	8.90842	6.905	8.86422
6.91	9.34295	6.91	9.24232
6.915	9.66904	6.915	9.52583
6.92	9.91381	6.92	9.73841
6.925	10.0976	6.925	9.89779
6.93	10.2356	6.93	10.0173
6.935	10.3393	6.935	10.1068
6.94	10.4173	6.94	10.1739
6.945	10.476	6.945	10.2242
6.95	9.89474	6.95	10.8873
6.955	10.0823	6.955	10.7613
6.96	10.2231	6.96	10.6668
6.965	10.3289	6.965	10.5958
6.97	10.4085	6.97	10.5425
6.975	10.4684	6.975	10.5025
6.98	10.5135	6.98	10.4725
6.985	10.5475	6.985	10.4499
6.99	10.5732	6.99	10.4328
6.995	10.5927	6.995	10.42
7	8.94208	7	8.74496
7.005	9.35521	7.005	9.13948
7.01	9.03975	7.01	10.0608
7.015	9.42661	7.015	10.1284
7.02	9.71693	7.02	10.179
7.025	9.93485	7.025	10.217
7.03	10.0985	7.03	10.2453
7.035	10.2213	7.035	10.2665
7.04	10.3137	7.04	10.2823
7.045	10.3831	7.045	10.2941
7.05	10.4354	7.05	10.3029
7.055	10.8617	7.055	9.92243
7.06	10.7997	7.06	10.0189
7.065	10.7534	7.065	10.0912
7.07	10.7189	7.07	10.1453
7.075	10.0677	7.075	10.8113
7.08	10.2027	7.08	10.6874
7.085	10.3042	7.085	10.5945
7.09	10.3805	7.09	10.5247
7.095	10.8248	7.095	10.0853
7.1	10.7763	7.1	10.1376
7.105	10.7402	7.105	10.1767
7.11	10.7132	7.11	10.206
7.115	10.6932	7.115	10.2279
7.12	10.6784	7.12	10.2442
7.125	10.0419	7.125	10.8819
7.13	10.188	7.13	10.7368
7.135	10.6847	7.135	10.2409
7.14	10.6756	7.14	10.2508
7.145	10.6689	7.145	10.2582
7.15	10.664	7.15	10.2637
7.155	8.99519	7.155	8.60227
7.16	9.39459	7.16	9.00703
7.165	10.0813	7.165	8.92357
7.17	10.2145	7.17	9.24274
7.175	10.3147	7.175	9.48203
7.18	9.76442	7.18	10.2869
7.185	9.97517	7.185	10.2672
7.19	10.1334	7.19	10.2523
7.195	10.6391	7.195	9.85408
7.2	10.6368	7.2	9.93721
7.205	10.6351	7.205	9.99946
7.21	10.3955	7.21	10.2846
7.215	10.0704	7.215	10.6439
7.22	10.5956	7.22	10.1445
7.225	10.6077	7.225	10.1517
7.23	10.617	7.23	10.157
7.235	10.6241	7.235	10.1609
7.24	10.6296	7.24	10.1637
7.245	10.6338	7.245	10.1657
7.25	10.6372	7.25	10.1672
7.255	10.0144	7.255	10.7936
7.26	10.5576	7.26	10.2532
7.265	10.5834	7.265	10.2296
7.27	10.6028	7.27	10.2119
7.275	10.6176	7.275	10.1985
7.28	10.6288	7.28	10.1883
7.285	10.6373	7.285	10.1806
7.29	10.6439	7.29	10.1747
7.295	10.649	7.295	10.1703
7.3	10.653	7.3	10.1668
7.305	10.4176	7.305	10.4027
7.31	10.4826	7.31	10.3381
7.315	10.5315	7.315	10.2895
7.32	10.5683	7.32	10.253
7.325	10.5961	7.325	10.2256
7.33	10.617	7.33	10.2049
7.335	10.6329	7.335	10.1893
7.34	10.0195	7.34	10.803
7.345	10.1829	7.345	10.6399
7.35	10.3056	7.35	10.5175
7.355	10.3977	7.355	10.4256
7.36	10.8539	7.36	9.96964
7.365	10.8144	7.365	10.0095
7.37	10.7849	7.37	10.0392
7.375	10.7629	7.375	10.0615
7.38	10.1211	7.38	10.7035
7.385	10.2631	7.385	10.5617
7.39	10.3698	7.39	10.4553
7.395	10.45	7.395	10.3754
7.4	10.5103	7.4	10.3154
7.405	10.9426	7.405	9.88333
7.41	10.4981	7.41	10.328
7.415	10.9338	7.415	9.89263
7.42	8.5879	7.42	8.90796
7.425	9.1028	7.425	9.19697
7.43	9.4891	7.43	9.41363
7.435	9.77896	7.435	9.57602
7.44	9.99648	7.44	9.6977
7.445	10.1598	7.445	9.78886
7.45	9.65685	7.45	10.4826
7.455	9.90308	7.455	10.3795
7.46	10.0879	7.46	10.3021
7.465	10.2266	7.465	10.244
7.47	10.3308	7.47	10.2003
7.475	10.409	7.475	10.1674
7.48	10.8548	7.48	9.75565
7.485	10.4205	7.485	10.2156
7.49	10.2382	7.49	10.4171
7.495	10.343	7.495	10.3267
7.5	10.4217	7.5	10.2588
7.505	10.4809	7.505	10.2078
7.51	10.5254	7.51	10.1694
7.515	10.5589	7.515	10.1405
7.52	10.5842	7.52	10.1188
7.525	10.6032	7.525	10.1024
7.53	9.99218	7.53	10.7154
7.535	10.1573	7.535	10.5518
7.54	10.2813	7.54	10.4291
7.545	10.3744	7.545	10.3369
7.55	10.8313	7.55	9.88068
7.555	10.4052	7.555	10.3073
7.56	10.8547	7.56	9.85826
7.565	10.81	7.565	9.90329
7.57	10.7766	7.57	9.93695
7.575	10.1262	7.575	10.5876
7.58	10.2619	7.58	10.4522
7.585	10.3637	7.585	10.3505
7.59	10.4402	7.59	10.2742
7.595	10.4977	7.595	10.2168
7.6	10.5409	7.6	10.1737
7.605	10.5735	7.605	10.1413
7.61	10.5981	7.61	10.1169
7.615	9.99112	7.615	10.7239
7.62	10.1593	7.62	10.5558
7.625	10.6725	7.625	10.0427
7.63	10.6757	7.63	10.0397
7.635	10.6782	7.635	10.0373
7.64	10.6802	7.64	10.0354
7.645	10.6818	7.645	10.0339
7.65	10.6832	7.65	10.0326
7.655	10.6843	7.655	10.0316
7.66	10.0598	7.66	10.6562
7.665	10.2148	7.665	10.5013
7.67	10.3312	7.67	10.385
7.675	10.8056	7.675	9.91074
7.68	10.7796	7.68	9.93681
7.685	10.7602	7.685	9.95627
7.69	10.7459	7.69	9.97076
7.695	10.7352	7.695	9.98153
7.7	10.1018	7.7	10.615
7.705	10.2502	7.705	10.4667
7.71	10.3616	7.71	10.3554
7.715	10.4453	7.715	10.2718
7.72	10.5082	7.72	10.2091
7.725	10.5554	7.725	10.1619
7.73	10.591	7.73	10.1264
7.735	10.6178	7.735	10.0997
7.74	10.6381	7.74	10.0796
7.745	10.0279	7.745	10.6898
7.75	10.5806	7.75	10.1372
7.755	10.6134	7.755	10.1046
7.76	10.6381	7.76	10.08
7.765	10.2698	7.765	10.4483
7.77	10.7625	7.77	9.95573
7.775	10.7503	7.775	9.96804
7.78	10.7413	7.78	9.97718
7.785	10.7346	7.785	9.98393
7.79	10.1043	7.79	10.6144
7.795	10.2549	7.795	10.4639
7.8	10.368	7.8	10.3509
7.805	10.4529	7.805	10.266
7.81	10.5168	7.81	10.2023
7.815	10.5648	7.815	10.1544
7.82	10.6009	7.82	10.1184
7.825	10.6281	7.825	10.0913
7.83	10.6486	7.83	10.0709
7.835	10.6641	7.835	10.0554
7.84	10.0504	7.84	10.6693
7.845	10.6005	7.845	10.1193
7.85	10.6313	7.85	10.0886
7.855	10.6545	7.855	10.0655
7.86	10.672	7.86	10.0481
7.865	10.6853	7.865	10.0349
7.87	10.6953	7.87	10.025
7.875	10.703	7.875	10.0174
7.88	10.0834	7.88	10.6371
7.885	10.2421	7.885	10.4785
7.89	10.3612	7.89	10.3595
7.895	10.4507	7.895	10.2701
7.9	10.5179	7.9	10.203
7.905	10.5685	7.905	10.1526
7.91	10.6065	7.91	10.1146
7.915	10.6351	7.915	10.0861
7.92	10.6567	7.92	10.0646
7.925	10.673	7.925	10.0484
7.93	10.6854	7.93	10.0361
7.935	10.0693	7.935	10.6523
7.94	10.2306	7.94	10.4911
7.945	10.3517	7.945	10.3701
7.95	10.4427	7.95	10.2793
7.955	10.511	7.955	10.211
7.96	10.5624	7.96	10.1598
7.965	10.601	7.965	10.1212
7.97	8.9647	7.97	8.42685
7.975	9.38847	7.975	8.80683
7.98	9.7064	7.98	9.09171
7.985	9.31946	7.985	9.93073
7.99	9.65263	7.99	9.93662
7.995	9.9026	7.995	9.94092
8	10.0902	8	9.94404
8.005	10.231	8.005	9.94627
8.01	10.7236	8.01	9.56088
8.015	10.3244	8.015	10.0405
8.02	10.7938	8.02	9.63136
8.025	10.7642	8.025	9.70623
8.03	10.3551	8.03	10.1492
8.035	10.1917	8.035	10.338
8.04	9.92371	8.04	10.6251
8.045	10.1047	8.045	10.4583
8.05	10.6275	8.05	9.94627
8.055	10.6378	8.055	9.94396
8.06	10.6456	8.06	9.94212
8.065	10.6516	8.065	9.94063
8.07	10.6562	8.07	9.9394
8.075	10.6597	8.075	9.93837
8.08	10.6624	8.08	9.93749
8.085	10.0391	8.085	10.5622
8.09	10.195	8.09	10.4073
8.095	10.312	8.095	10.2911
8.1	10.3998	8.1	10.2038
8.105	10.4658	8.105	10.1382
8.11	10.5154	8.11	10.0889
8.115	10.5527	8.115	10.0519
8.12	10.5807	8.12	10.0239
8.125	10.6019	8.125	10.0029
8.13	10.6178	8.13	9.98699
8.135	10.6299	8.135	9.97496
8.14	10.639	8.14	9.96583
8.145	10.646	8.145	9.95887
8.15	10.6513	8.15	9.95354
8.155	10.0299	8.155	10.5749
8.16	10.1872	8.16	10.4176
8.165	10.3053	8.165	10.2995
8.17	10.3939	8.17	10.2108
8.175	10.4605	8.175	10.1441
8.18	10.5106	8.18	10.094
8.185	10.5482	8.185	10.0564
8.19	10.5765	8.19	10.028
8.195	10.5978	8.195	10.0066
8.2	10.6139	8.2	9.99049
8.205	10.6261	8.205	9.97828
8.21	10.6353	8.21	9.96901
8.215	10.6423	8.215	9.96195
8.22	10.0222	8.22	10.582
8.225	10.1805	8.225	10.4237
8.23	10.2993	8.23	10.3049
8.235	10.3884	8.235	10.2156
8.24	10.4554	8.24	10.1486
8.245	10.5058	8.245	10.0982
8.25	10.5436	8.25	10.0603
8.255	10.5721	8.255	10.0318
8.26	10.5935	8.26	10.0103
8.265	10.6097	8.265	9.99402
8.27	10.622	8.27	9.98174
8.275	10.6312	8.275	9.97242
8.28	10.6383	8.28	9.96532
8.285	10.6437	8.285	9.95989
8.29	10.6478	8.29	9.95572
8.295	10.651	8.295	9.95247
8.3	10.6535	8.3	9.94994
8.305	10.6554	8.305	9.94792
8.31	10.657	8.31	9.94631
8.315	10.6583	8.315	9.94499
8.32	10.0338	8.32	10.5694
8.325	10.1889	8.325	10.4143
8.33	10.3052	8.33	10.2979
8.335	10.3926	8.335	10.2104
8.34	10.4582	8.34	10.1448
8.345	10.5075	8.345	10.0954
8.35	10.5446	8.35	10.0583
8.355	10.5725	8.355	10.0303
8.36	10.5935	8.36	10.0093
8.365	10.6094	8.365	9.99335
8.37	10.6214	8.37	9.98131
8.375	10.6305	8.375	9.97217
8.38	10.6374	8.38	9.96522
8.385	10.2557	8.385	10.3468
8.39	10.3514	8.39	10.2511
8.395	10.4233	8.395	10.1792
8.4	10.4773	8.4	10.1251
8.405	10.5178	8.405	10.0845
8.41	10.5484	8.41	10.0539
8.415	10.5714	8.415	10.0308
8.42	9.96324	8.42	10.6389
8.425	10.1305	8.425	10.4716
8.43	10.256	8.43	10.346
8.435	10.3503	8.435	10.2517
8.44	10.4211	8.44	10.1809
8.445	10.4742	8.445	10.1277
8.45	10.5142	8.45	10.0877
8.455	10.5443	8.455	10.0575
8.46	10.18	8.46	10.4218
8.465	10.6757	8.465	9.92605
8.47	10.2787	8.47	10.323
8.475	10.3629	8.475	10.2387
8.48	10.4262	8.48	10.1754
8.485	10.4737	8.485	10.1278
8.49	10.5095	8.49	10.092
8.495	10.5364	8.495	10.065
8.5	10.5567	8.5	10.0447
8.505	10.572	8.505	10.0293
8.51	10.5835	8.51	10.0177
8.515	10.5923	8.515	10.0089
8.52	10.212	8.52	10.3891
8.525	10.3088	8.525	10.2923
8.53	10.3814	8.53	10.2196
8.535	10.436	8.535	10.165
8.54	10.477	8.54	10.1239
8.545	10.5079	8.545	10.093
8.55	10.5311	8.55	10.0697
8.555	10.5487	8.555	10.0521
8.56	9.93642	8.56	10.6643
8.565	10.3391	8.565	10.2616
8.57	9.77437	8.57	10.8263
8.575	9.97416	8.575	10.6264
8.58	10.1241	8.58	10.4764
8.585	10.2366	8.585	10.3638
8.59	10.3211	8.59	10.2793
8.595	10.3846	8.595	10.2158
8.6	10.4323	8.6	10.168
8.605	10.4682	8.605	10.1321
8.61	10.1082	8.61	10.492
8.615	10.2202	8.615	10.38
8.62	10.3043	8.62	10.2959
8.625	10.3674	8.625	10.2327
8.63	10.4149	8.63	10.1851
8.635	10.4506	8.635	10.1494
8.64	10.4774	8.64	10.1225
8.645	10.4976	8.645	10.1022
8.65	10.5129	8.65	10.0869
8.655	10.5244	8.655	10.0753
8.66	10.5332	8.66	10.0665
8.665	10.5398	8.665	10.0598
8.67	10.5449	8.67	10.0547
8.675	10.5488	8.675	10.0507
8.68	10.5518	8.68	10.0477
8.685	10.1673	8.685	10.4322
8.69	10.2608	8.69	10.3386
8.695	10.331	8.695	10.2684
8.7	10.3838	8.7	10.2156
8.705	10.4234	8.705	10.1758
8.71	10.4533	8.71	10.146
8.715	10.4757	8.715	10.1234
8.72	10.4927	8.72	10.1064
8.725	10.5055	8.725	10.0936
8.73	10.5152	8.73	10.0838
8.735	10.5225	8.735	10.0764
8.74	10.5281	8.74	10.0708
8.745	10.5324	8.745	10.0664
8.75	10.5357	8.75	10.0631
8.755	10.5383	8.755	10.0604
8.76	10.5403	8.76	10.0583
8.765	9.52953	8.765	11.0691
8.77	9.77664	8.77	10.8219
8.775	9.96207	8.775	10.6365
8.78	10.1012	8.78	10.4973
8.785	10.2057	8.785	10.3927
8.79	10.2841	8.79	10.3143
8.795	10.343	8.795	10.2553
8.8	10.3873	8.8	10.211
8.805	10.4206	8.805	10.1776
8.81	10.4457	8.81	10.1525
8.815	10.4646	8.815	10.1336
8.82	10.4788	8.82	10.1192
8.825	10.4896	8.825	10.1084
8.83	10.4978	8.83	10.1002
8.835	10.504	8.835	10.0939
8.84	10.5088	8.84	10.0891
8.845	10.5124	8.845	10.0854
8.85	10.5153	8.85	10.0825
8.855	10.5175	8.855	10.0802
8.86	10.5192	8.86	10.0784
8.865	10.5206	8.865	10.077
8.87	10.5218	8.87	10.0758
8.875	10.5227	8.875	10.0748
8.88	10.5235	8.88	10.0739
8.885	10.5242	8.885	10.0732
8.89	10.5248	8.89	10.0725
8.895	10.5254	8.895	10.0719
8.9	10.5259	8.9	10.0714
8.905	10.5264	8.905	10.0708
8.91	10.5268	8.91	10.0704
8.915	10.5272	8.915	10.0699
8.92	10.5276	8.92	10.0694
8.925	10.528	8.925	10.069
8.93	10.5284	8.93	10.0685
8.935	10.5288	8.935	10.0681
8.94	10.5292	8.94	10.0677
8.945	9.90405	8.945	10.6927
8.95	10.0586	8.95	10.5382
8.955	8.50918	8.955	8.75673
8.96	8.99808	8.96	9.07142
8.965	9.36483	8.965	9.30732
8.97	9.63997	8.97	9.48413
8.975	9.84639	8.975	9.61661
8.98	10.0013	8.98	9.71585
8.985	10.1175	8.985	9.79015
8.99	10.2048	8.99	9.84576
8.995	10.2703	8.995	9.88735
9	10.3195	9	9.91842
9.005	10.3564	9.005	9.9416
9.01	10.3842	9.01	9.95886
9.015	10.0182	9.015	10.3586
9.02	10.1256	9.02	10.2765
9.025	10.2062	9.025	10.2147
9.03	10.2668	9.03	10.1683
9.035	10.3123	9.035	10.1334
9.04	10.3464	9.04	10.107
9.045	10.3721	9.045	10.0872
9.05	10.3915	9.05	10.0722
9.055	10.4061	9.055	10.0608
9.06	10.4171	9.06	10.0521
9.065	10.4254	9.065	10.0455
9.07	10.4317	9.07	10.0404
9.075	10.4365	9.075	10.0365
9.08	10.4402	9.08	10.0334
9.085	10.443	9.085	10.031
9.09	10.4452	9.09	10.029
9.095	10.4469	9.095	10.0274
9.1	10.4483	9.1	10.0261
9.105	9.82389	9.105	10.6505
9.11	11.6443	9.11	12.1608
9.115	11.3589	9.115	11.6425
9.12	11.1448	9.12	11.2537
9.125	10.9844	9.125	10.962
9.13	10.8642	9.13	10.7431
9.135	10.7741	9.135	10.5789
9.14	10.7066	9.14	10.4556
9.145	10.6561	9.145	10.363
9.15	10.6183	9.15	10.2935
9.155	10.5901	9.155	10.2412
9.16	10.569	9.16	10.2019
9.165	10.5532	9.165	10.1724
9.17	10.5415	9.17	10.1501
9.175	10.5328	9.175	10.1333
9.18	10.5264	9.18	10.1206
9.185	10.5216	9.185	10.1109
9.19	10.5182	9.19	10.1036
9.195	10.5156	9.195	10.098
9.2	10.5139	9.2	10.0937
9.205	10.5126	9.205	10.0904
9.21	10.5117	9.21	10.0878
9.215	10.5112	9.215	10.0857
9.22	10.5109	9.22	10.0841
9.225	10.5107	9.225	10.0828
9.23	10.5107	9.23	10.0817
9.235	10.1238	9.235	10.4677
9.24	10.6025	9.24	9.9883
9.245	10.1929	9.245	10.3975
9.25	10.2676	9.25	10.3224
9.255	10.7106	9.255	9.879
9.26	10.2742	9.26	10.3152
9.265	10.3288	9.265	10.2604
9.27	10.3699	9.27	10.2191
9.275	10.4008	9.275	10.1881
9.28	10.424	9.28	10.1648
9.285	9.81609	9.285	10.7726
9.29	10.609	9.29	9.97965
9.295	9.95496	9.295	10.6336
9.3	10.0878	9.3	10.5007
9.305	10.1875	9.305	10.4009
9.31	10.2624	9.31	10.3259
9.315	10.3187	9.315	10.2696
9.32	10.361	9.32	10.2273
9.325	10.3928	9.325	10.1954
9.33	10.4167	9.33	10.1714
9.335	10.4347	9.335	10.1533
9.34	10.4483	9.34	10.1397
9.345	10.4586	9.345	10.1293
9.35	10.4665	9.35	10.1215
9.355	10.0855	9.355	10.5024
9.36	10.1817	9.36	10.4061
9.365	10.2539	9.365	10.3339
9.37	10.3082	9.37	10.2795
9.375	10.3489	9.375	10.2387
9.38	10.3796	9.38	10.208
9.385	10.4027	9.385	10.1848
9.39	10.4201	9.39	10.1674
9.395	10.4333	9.395	10.1542
9.4	10.4432	9.4	10.1442
9.405	10.4508	9.405	10.1366
9.41	10.4565	9.41	10.1308
9.415	10.4609	9.415	10.1263
9.42	10.4643	9.42	10.1229
9.425	9.84145	9.425	10.7457
9.43	9.61072	9.43	10.9764
9.435	9.81963	9.435	10.7674
9.44	9.9764	9.44	10.6106
9.445	10.0941	9.445	10.4929
9.45	10.1824	9.45	10.4045
9.455	10.2487	9.455	10.3381
9.46	10.2986	9.46	10.2882
9.465	10.336	9.465	10.2507
9.47	10.3642	9.47	10.2225
9.475	10.3854	9.475	10.2012
9.48	10.4015	9.48	10.1851
9.485	10.4135	9.485	10.173
9.49	10.4227	9.49	10.1638
9.495	10.4296	9.495	10.1568
9.5	10.435	9.5	10.1514
9.505	10.439	9.505	10.1473
9.51	10.4421	9.51	10.1441
9.515	10.4446	9.515	10.1416
9.52	9.82102	9.52	10.7651
9.525	9.9767	9.525	10.6094
9.53	10.0935	9.53	10.4925
9.535	10.1813	9.535	10.4047
9.54	10.2471	9.54	10.3388
9.545	10.2966	9.545	10.2893
9.55	9.9469	9.55	10.639
9.555	10.4535	9.555	10.1323
9.56	10.4517	9.56	10.1341
9.565	10.4504	9.565	10.1353
9.57	10.4495	9.57	10.1362
9.575	10.062	9.575	10.5236
9.58	10.5402	9.58	10.0453
9.585	10.5171	9.585	10.0684
9.59	10.4999	9.59	10.0856
9.595	10.4871	9.595	10.0983
9.6	9.85204	9.6	10.7333
9.605	9.99913	9.605	10.5862
9.61	10.1095	9.61	10.4757
9.615	10.1924	9.615	10.3928
9.62	10.2547	9.62	10.3305
9.625	10.3014	9.625	10.2837
9.63	10.3366	9.63	10.2484
9.635	10.3631	9.635	10.2219
9.64	10.383	9.64	10.202
9.645	10.398	9.645	10.1869
9.65	10.4094	9.65	10.1755
9.655	10.418	9.655	10.1668
9.66	10.4245	9.66	10.1602
9.665	10.4295	9.665	10.1552
9.67	10.4333	9.67	10.1513
9.675	10.4363	9.675	10.1483
9.68	10.4386	9.68	10.1459
9.685	10.4404	9.685	10.1441
9.69	9.81635	9.69	10.7681
9.695	9.97168	9.695	10.6127
9.7	10.4752	9.7	10.1091
9.705	10.0841	9.705	10.5002
9.71	8.8943	9.71	8.35912
9.715	9.27104	9.715	8.78599
9.72	9.55365	9.72	9.10603
9.725	9.76567	9.725	9.34594
9.73	9.92476	9.73	9.52576
9.735	10.0441	9.735	9.66051
9.74	10.1337	9.74	9.76145
9.745	10.201	9.745	9.83704
9.75	10.2515	9.75	9.89362
9.755	10.6764	9.755	9.549
9.76	10.2263	9.76	10.0592
9.765	10.0322	9.765	10.2984
9.77	10.128	9.77	10.2363
9.775	10.2	9.775	10.1896
9.78	10.254	9.78	10.1545
9.785	10.2946	9.785	10.128
9.79	10.3251	9.79	10.1081
9.795	12.0134	9.795	11.7584
9.8	11.6289	9.8	11.3451
9.805	11.3405	9.805	11.0351
9.81	11.1243	9.81	10.8025
9.815	10.9623	9.815	10.6279
9.82	10.8409	9.82	10.4969
9.825	10.7498	9.825	10.3985
9.83	11.0686	9.83	9.93771
9.835	10.9259	9.835	9.97388
9.84	10.1935	9.84	10.6264
9.845	10.2675	9.845	10.4924
9.85	10.3231	9.85	10.3918
9.855	10.3649	9.855	10.3163
9.86	10.3964	9.86	10.2595
9.865	10.42	9.865	10.2169
9.87	10.4378	9.87	10.1848
9.875	10.8382	9.875	9.77369
9.88	10.7567	9.88	9.84713
9.885	10.6957	9.885	9.90212
9.89	10.65	9.89	9.94326
9.895	10.6158	9.895	9.97403
9.9	10.5903	9.9	9.99701
9.905	10.5712	9.905	10.0141
9.91	10.5569	9.91	10.0269
9.915	9.92086	9.915	10.6619
9.92	10.0672	9.92	10.5147
9.925	10.177	9.925	10.4043
9.93	10.2594	9.93	10.3213
9.935	10.3213	9.935	10.259
9.94	10.3678	9.94	10.2122
9.945	10.4028	9.945	10.177
9.95	10.4291	9.95	10.1505
9.955	10.4489	9.955	10.1305
9.96	10.4638	9.96	10.1155
9.965	10.8621	9.965	9.71713
9.97	10.392	9.97	10.1871
9.975	10.8083	9.975	9.77066
9.98	10.3519	9.98	10.2271
9.985	10.7784	9.985	9.80044
9.99	10.0911	9.99	10.4877
9.995	9.81194	9.995	10.7668
10	-3.16476	10	-2.55519
10.005	-2.66573	10.005	-3.08919
10.01	-2.6776	10.01	-3.11227
10.015	-3.07774	10.015	-2.7471
10.02	-3.00026	10.02	-2.85954
10.025	-2.94644	10.025	-2.94832
10.03	-2.91035	10.03	-3.01937
10.035	-2.88757	10.035	-3.07711
10.04	-2.87477	10.04	-3.12487
10.045	-2.86945	10.045	-3.16514
10.05	-3.49522	10.05	-2.57433
10.055	-3.34557	10.055	-2.75894
10.06	-3.23761	10.06	-2.90186
10.065	-3.16092	10.065	-3.0135
10.07	-3.10769	10.07	-3.10169
10.075	-3.07206	10.075	-3.17228
10.08	-1.38422	10.08	-1.56429
10.085	-2.39898	10.085	-1.38814
10.09	-2.54104	10.09	-1.88373
10.095	-2.65185	10.095	-2.25987
10.1	-2.73923	10.1	-2.5464
10.105	-1.76911	10.105	-0.474859
10.11	-2.07339	10.11	-1.19978
10.115	-2.30585	10.115	-1.74789
10.12	-1.44452	10.12	0.127491
10.125	-1.83038	10.125	-0.744533
10.13	-0.458603	10.13	0.262452
10.135	-1.71036	10.135	-0.0120981
10.14	-0.364713	10.14	0.819739
10.145	0.0293503	10.145	2.07925
10.15	-0.706897	10.15	0.745376
10.155	-0.87631	10.155	-0.646309
10.16	2.9813	10.16	4.30913
10.165	0.915504	10.165	3.07096
10.17	1.65071	10.17	3.18018
10.175	1.58703	10.175	3.89782
10.18	2.17297	10.18	3.82305
10.185	2.62287	10.185	3.77726
10.19	4.39762	10.19	5.65715
10.195	4.32969	10.195	5.18511
10.2	5.71613	10.2	6.74538
10.205	4.73154	10.205	6.65917
10.21	4.62695	10.21	5.98166
10.215	7.65135	10.215	9.05329
10.22	6.86993	10.22	7.82433
10.225	6.29453	10.225	6.91313
10.23	9.35287	10.23	9.42265
10.235	8.21513	10.235	8.15405
10.24	5.70719	10.24	5.54783
10.245	8.58015	10.245	8.824
10.25	7.68531	10.25	7.74861
10.255	7.41197	10.255	6.56582
10.26	10.1667	10.26	9.4021
10.265	9.3289	10.265	7.85134
10.27	8.32959	10.27	7.08094
10.275	8.63098	10.275	8.80482
10.28	8.22734	10.28	7.44746
10.285	7.55375	10.285	6.82218
10.29	12.4427	10.29	10.9734
10.295	10.5475	10.295	9.76542
10.3	9.37859	10.3	8.62904
10.305	17.6139	10.305	15.3409
10.31	14.7835	10.31	12.8951
10.315	19.095	10.315	17.972
10.32	15.9779	10.32	14.946
10.325	20.6999	10.325	18.9624
10.33	17.6545	10.33	15.3773
10.335	15.387	10.335	12.6949
10.34	18.3122	10.34	16.0724
10.345	15.952	10.345	13.2775
10.35	13.8116	10.35	11.5746
10.355	17.2141	10.355	15.3051
10.36	15.212	10.36	12.775
10.365	16.671	10.365	14.6016
10.37	14.4754	10.37	12.6815
10.375	13.2274	10.375	10.8661
10.38	15.2521	10.38	13.2289
10.385	13.4808	10.385	11.711
10.39	12.5512	10.39	10.1974
10.395	14.8148	10.395	12.7866
10.4	13.2227	10.4	11.4386
10.405	17.0368	10.405	15.4357
10.41	15.3438	10.41	13.1058
10.415	17.035	10.415	15.083
10.42	16.6792	10.42	14.9415
10.425	16.4391	10.425	14.862
10.43	14.6203	10.43	13.1635
10.435	13.2685	10.435	11.9018
10.44	12.2669	10.44	10.9676
10.445	11.528	10.445	10.2792
10.45	10.9862	10.45	9.77501
10.455	10.5921	10.455	9.40908
10.46	10.9344	10.46	8.52136
10.465	9.9547	10.465	9.11655
10.47	11.1341	10.47	11.0043
10.475	11.0005	10.475	10.1611
10.48	11.0583	10.48	9.39541
10.485	12.0108	10.485	11.2677
10.49	11.4685	10.49	10.6516
10.495	12.7398	10.495	11.8672
10.5	11.668	10.5	11.5274
10.505	12.924	10.505	12.5686
10.51	12.2277	10.51	11.711
10.515	11.7181	10.515	11.0803
10.52	10.9616	10.52	11.0068
10.525	9.1234	10.525	8.91692
10.53	10.6868	10.53	11.0653
10.535	10.603	10.535	10.6564
10.54	11.4444	10.54	12.8016
10.545	11.201	10.545	12.0085
10.55	10.6444	10.55	11.8133
10.555	11.247	10.555	10.6722
10.56	10.0762	10.56	11.4648
10.565	13.7853	10.565	14.159
10.57	12.65	10.57	13.5191
10.575	12.1932	10.575	12.67
10.58	13.1421	10.58	14.0984
10.585	12.2107	10.585	13.5367
10.59	10.2417	10.59	11.081
10.595	11.3203	10.595	13.3423
10.6	9.58978	10.6	10.9711
10.605	9.56886	10.605	11.2435
10.61	9.56114	10.61	11.4658
10.615	10.1888	10.615	11.025
10.62	9.80583	10.62	11.5743
10.625	10.3935	10.625	11.1375
10.63	7.92815	10.63	10.4112
10.635	9.37379	10.635	9.89985
10.64	9.84791	10.64	10.1526
10.645	10.2167	10.645	10.3552
10.65	7.82863	10.65	9.86722
10.655	10.6107	10.655	11.5869
10.66	10.8183	10.66	11.4803
10.665	8.93483	10.665	10.135
10.67	10.8467	10.67	12.4605
10.675	10.6379	10.675	12.572
10.68	10.8765	10.68	12.2869
10.685	9.01647	10.685	10.8078
10.69	9.66752	10.69	10.9807
10.695	10.1691	10.695	11.1235
10.7	8.89335	10.7	9.57854
10.705	9.60076	10.705	10.0839
10.71	9.75776	10.71	10.8631
10.715	8.60538	10.715	9.41353
10.72	9.40541	10.72	9.99049
10.725	9.6319	10.725	10.8234
10.73	8.53169	10.73	9.4142
10.735	8.98392	10.735	10.4084
10.74	8.05303	10.74	9.12013
10.745	9.01922	10.745	9.81813
10.75	8.09195	10.75	8.68958
10.755	8.67393	10.755	9.89435
10.76	8.22734	10.76	8.37707
10.765	9.17492	10.765	9.28524
10.77	8.23374	10.77	8.31434
10.775	9.19227	10.775	9.25044
10.78	8.25931	10.78	8.30052
10.785	8.59854	10.785	9.87785
10.79	7.82441	10.79	8.7856
10.795	7.24286	10.795	7.96532
10.8	8.47115	10.8	9.01443
10.805	7.74056	10.805	8.1493
10.81	7.19169	10.81	7.49938
10.815	8.44451	10.815	8.67628
10.82	7.73232	10.82	7.90701
10.825	8.86268	10.825	8.99441
10.83	8.44561	10.83	7.77109
10.835	7.75006	10.835	7.23444
10.84	8.89291	10.84	8.49632
10.845	8.48523	10.845	7.40389
10.85	9.46214	10.85	8.63081
10.855	7.9176	10.855	8.52461
10.86	7.76856	10.86	7.43374
10.865	8.93947	10.865	8.66187
10.87	8.16593	10.87	7.9311
10.875	9.63729	10.875	8.66051
10.88	8.70724	10.88	7.93758
10.885	9.67429	10.885	9.05984
10.89	10.8002	10.89	9.52816
10.895	8.98569	10.895	9.23494
10.9	8.63422	10.9	8.00389
10.905	9.65338	10.905	9.12696
10.91	8.7661	10.91	8.31747
10.915	8.48684	10.915	7.32252
10.92	9.56017	10.92	8.62268
10.925	9.10048	10.925	7.55909
10.93	10.0385	10.93	8.80778
10.935	8.8519	10.935	8.33109
10.94	9.86803	10.94	9.39671
10.945	8.97853	10.945	8.5442
10.95	8.31072	10.95	7.90398
10.955	9.8615	10.955	8.70144
10.96	8.99115	10.96	8.02969
10.965	8.72466	10.965	7.13811
10.97	9.80764	10.97	8.51588
10.975	9.35528	10.975	7.51057
10.98	8.39494	10.98	7.3762
10.985	9.58084	10.985	8.69861
10.99	8.81873	10.99	8.03875
10.995	9.9119	10.995	9.20848
11	9.08027	11	8.43413
11.005	8.84287	11.005	7.46567
11.01	9.94773	11.01	8.78582
11.015	9.12488	11.015	8.12431
11.02	10.1725	11.02	9.29284
11.025	8.68132	11.025	9.14311
11.03	8.1856	11.03	8.40682
11.035	8.20017	11.035	7.46694
11.04	9.49405	11.04	8.80858
11.045	8.813	11.045	8.16321
11.05	8.68859	11.05	7.29155
11.055	9.87826	11.055	8.68437
11.06	9.11907	11.06	8.07741
11.065	8.54913	11.065	7.62151
11.07	9.78653	11.07	8.94431
11.075	8.43767	11.075	8.91034
11.08	8.04878	11.08	8.26093
11.085	7.75658	11.085	7.77321
11.09	9.20231	11.09	9.07216
11.095	8.6352	11.095	8.39485
11.1	8.20936	11.1	7.88622
11.105	7.88947	11.105	7.50411
11.11	9.31444	11.11	8.88229
11.115	8.73179	11.115	8.26441
11.12	8.29431	11.12	7.80038
11.125	7.96571	11.125	7.45174
11.13	8.75869	11.13	9.48052
11.135	8.32534	11.135	8.72734
11.14	7.99985	11.14	8.16186
11.145	9.42066	11.145	9.40254
11.15	8.83492	11.15	8.68158
11.155	8.39517	11.155	8.14028
11.16	8.0649	11.16	7.73373
11.165	7.81675	11.165	7.42823
11.17	9.29558	11.17	8.86393
11.175	8.36644	11.175	8.67619
11.18	8.05101	11.18	8.15296
11.185	7.81401	11.185	7.75998
11.19	7.01034	11.19	8.09017
11.195	8.69583	11.195	9.37937
11.2	8.30864	11.2	8.69484
11.205	8.01783	11.205	8.1809
11.21	9.46471	11.21	9.4603
11.215	8.89858	11.215	8.76844
11.22	8.47359	11.22	8.24902
11.225	8.15445	11.225	7.85893
11.23	7.9147	11.23	7.56585
11.235	9.39989	11.235	9.01091
11.24	8.86251	11.24	8.44331
11.245	7.44668	11.245	9.02953
11.25	7.38956	11.25	8.46356
11.255	7.34635	11.255	8.03859
11.26	8.97896	11.26	9.38475
11.265	8.55217	11.265	8.74299
11.27	8.23172	11.27	8.2612
11.275	7.99102	11.275	7.89937
11.28	7.81014	11.28	7.62751
11.285	7.67412	11.285	7.42314
11.29	9.23715	11.29	8.93477
11.295	8.37124	11.295	8.80409
11.3	8.49029	11.3	7.9368
11.305	7.57188	11.305	8.29322
11.31	9.17141	11.31	9.6022
11.315	8.3329	11.315	9.31954
11.32	8.08556	11.32	8.72524
11.325	7.89973	11.325	8.27907
11.33	7.76005	11.33	7.944
11.335	9.32036	11.335	9.35765
11.34	8.8394	11.34	8.76658
11.345	8.47837	11.345	8.32284
11.35	8.20731	11.35	7.98962
11.355	8.00371	11.355	7.73928
11.36	8.89062	11.36	9.84198
11.365	8.5279	11.365	9.14444
11.37	8.25558	11.37	8.62087
11.375	8.05106	11.375	8.2278
11.38	7.89738	11.38	7.93259
11.385	7.78185	11.385	7.71078
11.39	7.69491	11.39	7.54402
11.395	9.29482	11.395	9.08394
11.4	8.8436	11.4	8.5876
11.405	8.50492	11.405	8.21497
11.41	8.25064	11.41	7.93511
11.415	8.05968	11.415	7.72483
11.42	9.58158	11.42	9.23213
11.425	9.07188	11.425	8.71135
11.43	8.06387	11.43	8.94588
11.435	7.93089	11.435	8.49814
11.44	7.83092	11.44	8.16197
11.445	7.75569	11.445	7.90948
11.45	7.69902	11.45	7.71975
11.455	9.70862	11.455	8.85553
11.46	9.18283	11.46	8.438
11.465	8.78827	11.465	8.12451
11.47	8.49212	11.47	7.88904
11.475	8.26978	11.475	7.7121
11.48	8.1028	11.48	7.57904
11.485	7.97734	11.485	7.47891
11.49	7.88302	11.49	7.40346
11.495	9.47745	11.495	9.01193
11.5	8.39669	11.5	9.19254
11.505	8.20918	11.505	8.7044
11.51	8.06835	11.51	8.33798
11.515	7.96251	11.515	8.06283
11.52	7.88293	11.52	7.85615
11.525	8.20998	11.525	7.31386
11.53	8.07319	11.53	7.28869
11.535	7.58345	11.535	7.65643
11.54	9.65015	11.54	8.8285
11.545	9.16722	11.545	8.43821
11.55	8.80483	11.55	8.1452
11.555	8.53286	11.555	7.92513
11.56	8.71563	11.56	7.37282
11.565	8.47066	11.565	7.34015
11.57	7.66126	11.57	7.94083
11.575	7.6773	11.575	7.76775
11.58	7.68913	11.58	7.63765
11.585	9.36322	11.585	9.20516
11.59	8.96772	11.59	8.72961
11.595	8.67092	11.595	8.37267
11.6	8.44815	11.6	8.10467
11.605	8.28091	11.605	7.90339
11.61	8.1553	11.61	7.75215
11.615	8.06093	11.615	7.63843
11.62	7.98998	11.62	7.55285
11.625	7.93659	11.625	7.48838
11.63	9.94873	11.63	8.7182
11.635	8.79944	11.635	8.99674
11.64	8.56059	11.64	8.58212
11.645	8.38131	11.645	8.27088
11.65	8.24669	11.65	8.03719
11.655	8.14558	11.655	7.86165
11.66	8.06959	11.66	7.72974
11.665	8.01244	11.665	7.63053
11.67	7.96943	11.67	7.55587
11.675	7.93702	11.675	7.4996
11.68	9.57796	11.68	9.12253
11.685	9.54458	11.685	8.30165
11.69	9.13755	11.69	8.0676
11.695	8.83215	11.695	7.89182
11.7	8.60296	11.7	7.75974
11.705	8.43094	11.705	7.66043
11.71	8.30178	11.71	7.5857
11.715	7.57931	11.715	8.15489
11.72	7.66059	11.72	7.95827
11.725	7.72142	11.725	7.81055
11.73	9.4323	11.73	9.36492
11.735	9.06445	11.735	8.87957
11.74	8.78845	11.74	8.51534
11.745	8.58134	11.745	8.24194
11.75	8.42589	11.75	8.03666
11.755	8.30919	11.755	7.88248
11.76	8.22154	11.76	7.76661
11.765	8.1557	11.765	7.67949
11.77	8.1062	11.77	7.61392
11.775	8.06896	11.775	7.56451
11.78	8.04092	11.78	7.52724
11.785	8.01977	11.785	7.49905
11.79	8.00379	11.79	7.47769
11.795	7.99169	11.795	7.46144
11.8	7.74397	11.8	7.68756
11.805	7.79947	11.805	7.61552
11.81	9.11943	11.81	9.6136
11.815	8.84028	11.815	9.0792
11.82	8.63082	11.82	8.6782
11.825	8.47362	11.825	8.37724
11.83	8.35563	11.83	8.15131
11.835	8.26704	11.835	7.98166
11.84	8.58745	11.84	7.46727
11.845	8.05884	11.845	7.85009
11.85	8.04416	11.85	7.75513
11.855	8.03305	11.855	7.6837
11.86	8.02462	11.86	7.62992
11.865	8.0182	11.865	7.58938
11.87	8.01329	11.87	7.55878
11.875	8.00951	11.875	7.53561
11.88	8.00658	11.88	7.51803
11.885	8.00429	11.885	7.50464
11.89	9.66787	11.89	9.15979
11.895	9.26458	11.895	8.75008
11.9	8.33656	11.9	9.06808
11.905	8.26374	11.905	8.68313
11.91	8.59599	11.91	8.00728
11.915	8.46323	11.915	7.88207
11.92	8.36359	11.92	7.78798
11.925	8.28877	11.925	7.71723
11.93	8.23259	11.93	7.66398
11.935	8.19037	11.935	7.62385
11.94	8.15863	11.94	7.59357
11.945	7.74779	11.945	7.95762
11.95	7.82146	11.95	7.84861
11.955	7.87663	11.955	7.76667
11.96	7.91792	11.96	7.70502
11.965	7.94882	11.965	7.6586
11.97	7.97191	11.97	7.6236
11.975	7.98915	11.975	7.59717
11.98	8.00201	11.98	7.57715
11.985	8.01157	11.985	7.56196
11.99	8.01866	11.99	7.55038
11.995	8.0239	11.995	7.5415
12	8.02775	12	7.53466
12.005	7.40508	12.005	8.15483
12.01	7.56127	12.01	7.99649
12.015	9.34373	12.015	9.54296
12.02	9.02963	12.02	9.05174
12.025	8.79399	12.025	8.68317
12.03	8.61719	12.03	8.40657
12.035	8.48454	12.035	8.19896
12.04	8.38499	12.04	8.04308
12.045	8.31027	12.045	7.92601
12.05	8.25417	12.05	7.83804
12.055	8.21203	12.055	7.7719
12.06	8.18037	12.06	7.72212
12.065	8.15656	12.065	7.68463
12.07	8.13864	12.07	7.65634
12.075	8.12515	12.075	7.63496
12.08	8.11496	12.08	7.61876
12.085	8.10727	12.085	7.60644
12.09	8.10143	12.09	7.59704
12.095	8.097	12.095	7.58982
12.1	8.09361	12.1	7.58424
12.105	8.09101	12.105	7.57989
12.11	8.089	12.11	7.57646
12.115	8.08743	12.115	7.57373
12.12	8.0862	12.12	7.57151
12.125	7.45973	12.125	8.19516
12.13	8.23857	12.13	7.41398
12.135	7.57389	12.135	8.07668
12.14	7.69859	12.14	7.95027
12.145	7.79205	12.145	7.8553
12.15	7.86209	12.15	7.78391
12.155	7.91455	12.155	7.7302
12.16	7.56689	12.16	8.0767
12.165	7.68796	12.165	7.95454
12.17	9.44409	12.17	9.52816
12.175	9.11025	12.175	9.05733
12.18	9.24678	12.18	8.31712
12.185	8.58032	12.185	8.53062
12.19	8.4623	12.19	8.30874
12.195	8.76069	12.195	7.75524
12.2	8.60257	12.2	7.72183
12.205	8.48394	12.205	7.69663
12.21	8.39493	12.21	7.67759
12.215	8.32813	12.215	7.66316
12.22	8.27798	12.22	7.65219
12.225	8.24034	12.225	7.64382
12.23	7.82511	12.23	8.02434
12.235	7.89551	12.235	7.92772
12.24	7.94827	12.24	7.85511
12.245	7.9878	12.245	7.80051
12.25	8.01741	12.25	7.75941
12.255	8.03957	12.255	7.72844
12.26	8.05615	12.26	7.70507
12.265	8.06854	12.265	7.6874
12.27	8.07779	12.27	7.67399
12.275	7.45921	12.275	8.28928
12.28	7.6185	12.28	8.12732
12.285	7.73793	12.285	8.00571
12.29	7.82746	12.29	7.91436
12.295	7.89456	12.295	7.8457
12.3	7.94484	12.3	7.79406
12.305	7.98251	12.305	7.75519
12.31	8.01072	12.31	7.72589
12.315	8.03183	12.315	7.70377
12.32	8.04763	12.32	7.68704
12.325	8.05943	12.325	7.67434
12.33	8.06824	12.33	7.66468
12.335	8.0748	12.335	7.65728
12.34	8.07968	12.34	7.65159
12.345	8.0833	12.345	7.64718
12.35	8.08597	12.35	7.64373
12.355	8.08793	12.355	7.64099
12.36	7.7024	12.36	8.02574
12.365	7.79509	12.365	7.9323
12.37	7.86456	12.37	7.86207
12.375	8.30356	12.375	7.4223
12.38	8.25091	12.38	7.4742
12.385	8.21137	12.385	7.51298
12.39	8.18168	12.39	7.54192
12.395	8.15937	12.395	7.56348
12.4	8.14259	12.4	7.57951
12.405	8.12996	12.405	7.59138
12.41	8.12045	12.41	7.60014
12.415	7.72633	12.415	7.99352
12.42	7.81256	12.42	7.90654
12.425	7.87719	12.425	7.84116
12.43	7.92562	12.43	7.79198
12.435	7.96189	12.435	7.75495
12.44	7.36358	12.44	8.35251
12.445	8.16355	12.445	7.55179
12.45	8.14022	12.45	7.57437
12.455	7.49719	12.455	8.21665
12.46	7.63815	12.46	8.07494
12.465	7.74383	12.465	7.96851
12.47	7.82304	12.47	7.88855
12.475	7.88241	12.475	7.82843
12.48	7.92689	12.48	7.7832
12.485	7.9602	12.485	7.74914
12.49	7.98515	12.49	7.72344
12.495	8.00381	12.495	7.70403
12.5	8.01777	12.5	7.68933
12.505	8.02819	12.505	7.67816
12.51	8.03596	12.51	7.66963
12.515	7.6548	12.515	8.05004
12.52	7.75075	12.52	7.95334
12.525	7.82267	12.525	7.88067
12.53	7.87656	12.53	7.82603
12.535	7.91694	12.535	7.7849
12.54	9.61258	12.54	9.41931
12.545	9.23339	12.545	8.9941
12.55	9.33592	12.55	8.28812
12.555	9.03092	12.555	8.14037
12.56	8.80215	12.56	8.02944
12.565	8.63055	12.565	7.94612
12.57	8.50182	12.57	7.8835
12.575	8.40525	12.575	7.83641
12.58	8.3328	12.58	7.80097
12.585	8.27844	12.585	7.77427
12.59	8.23764	12.59	7.75412
12.595	8.20702	12.595	7.73888
12.6	7.79708	12.6	8.11427
12.605	7.87147	12.605	8.01383
12.61	7.92723	12.61	7.93837
12.615	7.96903	12.615	7.88165
12.62	8.00036	12.62	7.83899
12.625	8.02383	12.625	7.80686
12.63	8.0414	12.63	7.78265
12.635	8.05456	12.635	7.76436
12.64	8.0644	12.64	7.75052
12.645	8.07176	12.645	7.74002
12.65	8.07726	12.65	7.73202
12.655	8.4683	12.655	7.33894
12.66	8.37969	12.66	7.42588
12.665	7.68773	12.665	8.11644
12.67	7.792	12.67	8.01096
12.675	8.49567	12.675	7.30625
12.68	7.77463	12.68	8.02635
12.685	7.85711	12.685	7.94302
12.69	7.91894	12.69	7.8804
12.695	7.96528	12.695	7.83332
12.7	7.61307	12.7	8.18483
12.705	7.73075	12.705	8.06647
12.71	7.81899	12.71	7.97758
12.715	7.88514	12.715	7.91078
12.72	7.93472	12.72	7.86057
12.725	7.97189	12.725	7.82278
12.73	7.99974	12.73	7.79432
12.735	8.0206	12.735	7.77285
12.74	8.03621	12.74	7.75662
12.745	8.0479	12.745	7.74432
12.75	8.05664	12.75	7.73498
12.755	8.45012	12.755	7.3409
12.76	8.36334	12.76	7.42709
12.765	8.29822	12.765	7.4916
12.77	8.24936	12.77	7.53986
12.775	8.21269	12.775	7.57594
12.78	8.18516	12.78	7.60287
12.785	7.77754	12.785	8.00989
12.79	7.85367	12.79	7.93317
12.795	7.91074	12.795	7.8755
12.8	7.95351	12.8	7.83213
12.805	7.98557	12.805	7.79948
12.81	8.00959	12.81	7.77486
12.815	8.02757	12.815	7.75628
12.82	8.04104	12.82	7.74222
12.825	8.43806	12.825	7.3446
12.83	7.96698	12.83	7.81508
12.835	7.99552	12.835	7.78595
12.84	8.40384	12.84	7.37703
12.845	8.32819	12.845	7.45208
12.85	8.27143	12.85	7.50825
12.855	8.22883	12.855	7.55025
12.86	8.19686	12.86	7.58163
12.865	7.7859	12.865	7.99198
12.87	8.24647	12.87	7.53082
12.875	8.21001	12.875	7.56668
12.88	7.79569	12.88	7.9804
12.885	7.86679	12.885	7.90871
12.89	7.92009	12.89	7.85481
12.895	7.96004	12.895	7.81427
12.9	7.98998	12.9	7.78373
12.905	8.01241	12.905	7.76071
12.91	8.0292	12.91	7.74332
12.915	8.04177	12.915	7.73015
12.92	8.05117	12.92	7.72015
12.925	8.0582	12.925	7.71253
12.93	8.06344	12.93	7.70669
12.935	8.06735	12.935	7.70219
12.94	8.07025	12.94	7.69869
12.945	8.0724	12.945	7.69594
12.95	8.07399	12.95	7.69375
12.955	8.07516	12.955	7.69199
12.96	8.07601	12.96	7.69054
12.965	8.07662	12.965	7.68934
12.97	8.07705	12.97	7.68831
12.975	8.07735	12.975	7.68741
12.98	8.07755	12.98	7.68662
12.985	8.07767	12.985	7.6859
12.99	8.07774	12.99	7.68523
12.995	8.07776	12.995	7.68461
13	8.07776	13	7.68402
13.005	8.07772	13.005	7.68346
13.01	8.07768	13.01	7.68291
13.015	8.07761	13.015	7.68238
13.02	8.07754	13.02	7.68185
13.025	8.07746	13.025	7.68134
13.03	8.07737	13.03	7.68083
13.035	8.07728	13.035	7.68032
13.04	8.07719	13.04	7.67982
13.045	8.0771	13.045	7.67932
13.05	8.077	13.05	7.67882
13.055	8.0769	13.055	7.67832
13.06	8.0768	13.06	7.67782
13.065	8.0767	13.065	7.67733
13.07	8.0766	13.07	7.67683
13.075	8.0765	13.075	7.67634
13.08	7.68945	13.08	8.06279
13.085	7.781	13.085	7.97064
13.09	7.84964	13.09	7.9014
13.095	7.9011	13.095	7.84935
13.1	7.93966	13.1	7.81019
13.105	7.96856	13.105	7.7807
13.11	7.99021	13.11	7.75845
13.115	8.00642	13.115	7.74164
13.12	8.01855	13.12	7.72892
13.125	8.02762	13.125	7.71925
13.13	8.0344	13.13	7.71187
13.135	8.03946	13.135	7.70621
13.14	8.04323	13.14	7.70185
13.145	8.04603	13.145	7.69845
13.15	7.42262	13.15	8.32126
13.155	8.20379	13.155	7.53949
13.16	7.15395	13.16	8.58874
13.165	7.99716	13.165	7.74494
13.17	8.00626	13.17	7.73524
13.175	8.01307	13.175	7.72783
13.18	7.39266	13.18	8.34764
13.185	8.17609	13.185	7.56362
13.19	8.14036	13.19	7.59875
13.195	7.48805	13.195	8.25046
13.2	8.24755	13.2	7.49036
13.205	8.19388	13.205	7.54344
13.21	7.52812	13.21	8.20861
13.215	7.65204	13.215	8.08409
13.22	8.37044	13.22	7.36509
13.225	7.66046	13.225	8.07448
13.23	7.98975	13.23	7.74459
13.235	7.99529	13.235	7.73845
13.24	7.37394	13.24	8.35921
13.245	8.15665	13.245	7.5759
13.25	7.4949	13.25	8.23705
13.255	7.62184	13.255	8.10951
13.26	8.3425	13.26	7.38826
13.265	8.25969	13.265	7.47047
13.27	7.57208	13.27	8.15748
13.275	7.67962	13.275	8.04935
13.28	7.76025	13.28	7.96813
13.285	7.82069	13.285	7.90709
13.29	7.866	13.29	7.86118
13.295	7.89995	13.295	7.82663
13.3	7.92539	13.3	7.8006
13.305	7.94444	13.305	7.78095
13.31	7.9587	13.31	7.76609
13.315	7.96937	13.315	7.75483
13.32	7.97735	13.32	7.74625
13.325	7.9833	13.325	7.7397
13.33	7.98774	13.33	7.73466
13.335	7.99105	13.335	7.73076
13.34	7.9935	13.34	7.72772
13.345	7.99531	13.345	7.72531
13.35	7.99664	13.35	7.72338
13.355	7.99761	13.355	7.72181
13.36	7.99832	13.36	7.72051
13.365	7.99882	13.365	7.71942
13.37	7.99917	13.37	7.71847
13.375	7.9994	13.375	7.71764
13.38	7.99955	13.38	7.71689
13.385	7.99964	13.385	7.71621
13.39	7.99967	13.39	7.71558
13.395	7.99967	13.395	7.71498
13.4	7.99965	13.4	7.71441
13.405	7.9996	13.405	7.71386
13.41	7.99954	13.41	7.71332
13.415	7.99947	13.415	7.7128
13.42	7.99939	13.42	7.71228
13.425	7.9993	13.425	7.71177
13.43	7.99921	13.43	7.71127
13.435	7.99911	13.435	7.71077
13.44	7.99902	13.44	7.71027
13.445	7.99891	13.445	7.70977
13.45	7.99881	13.45	7.70928
13.455	7.99871	13.455	7.70878
13.46	7.99861	13.46	7.70829
13.465	7.9985	13.465	7.7078
13.47	7.9984	13.47	7.70731
13.475	7.99829	13.475	7.70682
13.48	7.99818	13.48	7.70633
13.485	7.99808	13.485	7.70584
13.49	7.99797	13.49	7.70535
13.495	7.99787	13.495	7.70486
13.5	7.99776	13.5	7.70437
13.505	7.99765	13.505	7.70387
13.51	7.99755	13.51	7.70338
13.515	7.99744	13.515	7.70289
13.52	7.99733	13.52	7.7024
13.525	7.99723	13.525	7.70191
13.53	7.99712	13.53	7.70142
13.535	7.99702	13.535	7.70093
13.54	7.99691	13.54	7.70044
13.545	7.9968	13.545	7.69995
13.55	7.9967	13.55	7.69946
13.555	7.99659	13.555	7.69897
13.56	7.99648	13.56	7.69848
13.565	7.99638	13.565	7.69799
13.57	7.99627	13.57	7.6975
13.575	7.99616	13.575	7.69701
13.58	7.99606	13.58	7.69652
13.585	7.99595	13.585	7.69603
13.59	7.99584	13.59	7.69554
13.595	7.99574	13.595	7.69505
13.6	7.99563	13.6	7.69456
13.605	7.99552	13.605	7.69407
13.61	7.99542	13.61	7.69358
13.615	7.99531	13.615	7.69309
13.62	7.9952	13.62	7.6926
13.625	7.9951	13.625	7.69211
13.63	7.99499	13.63	7.69162
13.635	7.99489	13.635	7.69113
13.64	7.99478	13.64	7.69064
13.645	7.99467	13.645	7.69015
13.65	7.99457	13.65	7.68966
13.655	7.99446	13.655	7.68917
13.66	7.99435	13.66	7.68868
13.665	7.99425	13.665	7.68819
13.67	7.99414	13.67	7.6877
13.675	7.99403	13.675	7.68721
13.68	7.99393	13.68	7.68672
13.685	7.99382	13.685	7.68623
13.69	7.99371	13.69	7.68574
13.695	7.99361	13.695	7.68525
13.7	7.9935	13.7	7.68476
13.705	7.99339	13.705	7.68427
13.71	7.99329	13.71	7.68378
13.715	7.99318	13.715	7.68329
13.72	7.99307	13.72	7.6828
13.725	7.99297	13.725	7.68231
13.73	7.99286	13.73	7.68182
13.735	7.99275	13.735	7.68133
13.74	7.99265	13.74	7.68084
13.745	7.99254	13.745	7.68035
13.75	7.99243	13.75	7.67986
13.755	7.99233	13.755	7.67937
13.76	7.99222	13.76	7.67888
13.765	7.99212	13.765	7.67839
13.77	7.99201	13.77	7.6779
13.775	9.6573	13.775	9.34281
13.78	9.25537	13.78	8.94049
13.785	8.95391	13.785	8.63865
13.79	8.72781	13.79	8.41217
13.795	8.55823	13.795	8.2422
13.8	8.43103	13.8	8.11463
13.805	8.33563	13.805	8.01884
13.81	8.26407	13.81	7.9469
13.815	8.21039	13.815	7.89283
13.82	7.78318	13.82	8.23913
13.825	7.84463	13.825	8.11689
13.83	7.89071	13.83	8.0251
13.835	7.92526	13.835	7.95616
13.84	7.95117	13.84	7.90434
13.845	7.97059	13.845	7.86538
13.85	7.98515	13.85	7.83606
13.855	7.99606	13.855	7.81396
13.86	8.00424	13.86	7.79728
13.865	8.01036	13.865	7.78467
13.87	8.01495	13.87	7.77511
13.875	8.01838	13.875	7.76784
13.88	8.02095	13.88	7.76228
13.885	8.02286	13.885	7.75801
13.89	8.02429	13.89	7.7547
13.895	8.02536	13.895	7.75212
13.9	8.02615	13.9	7.75007
13.905	8.02674	13.905	7.74844
13.91	8.02717	13.91	7.74711
13.915	8.02749	13.915	7.74601
13.92	8.02772	13.92	7.74508
13.925	8.02788	13.925	7.74428
13.93	7.64105	13.93	8.13053
13.935	7.73279	13.935	8.03824
13.94	7.80158	13.94	7.96892
13.945	7.85317	13.945	7.91683
13.95	7.89185	13.95	7.87766
13.955	7.92086	13.955	7.84818
13.96	7.9426	13.96	7.82596
13.965	7.95891	13.965	7.8092
13.97	7.97113	13.97	7.79652
13.975	7.98028	13.975	7.78691
13.98	7.98714	13.98	7.7796
13.985	7.99228	13.985	7.77401
13.99	7.99613	13.99	7.76972
13.995	7.999	13.995	7.76639
14	8.00115	14	7.7638
14.005	8.00276	14.005	7.76175
14.01	8.00396	14.01	7.76011
14.015	8.00485	14.015	7.75877
14.02	8.00551	14.02	7.75767
14.025	8.00599	14.025	7.75674
14.03	8.00635	14.03	7.75593
14.035	8.00661	14.035	7.75523
14.04	8.0068	14.04	7.7546
14.045	8.00694	14.045	7.75402
14.05	8.00703	14.05	7.75348
14.055	8.00709	14.055	7.75298
14.06	8.00713	14.06	7.7525
14.065	8.00715	14.065	7.75203
14.07	8.00716	14.07	7.75158
14.075	8.00716	14.075	7.75114
14.08	8.00715	14.08	7.7507
14.085	8.00714	14.085	7.75027
14.09	8.00712	14.09	7.74985
14.095	8.0071	14.095	7.74942
14.1	8.00708	14.1	7.749
14.105	8.00705	14.105	7.74859
14.11	8.00703	14.11	7.74817
14.115	8.007	14.115	7.74775
14.12	8.00697	14.12	7.74734
14.125	8.00694	14.125	7.74692
14.13	8.00692	14.13	7.74651
14.135	8.00689	14.135	7.74609
14.14	8.00686	14.14	7.74568
14.145	7.61988	14.145	8.13221
14.15	8.09845	14.15	7.6532
14.155	8.07551	14.155	7.6757
14.16	8.0583	14.16	7.69247
14.165	8.04538	14.165	7.70494
14.17	7.64873	14.17	8.10114
14.175	8.12006	14.175	7.62938
14.18	8.09167	14.18	7.65732
14.185	7.68343	14.185	8.06511
14.19	7.75911	14.19	7.98899
14.195	8.20281	14.195	7.54485
14.2	7.76676	14.2	7.98045
14.205	7.82159	14.205	7.92519
14.21	7.8627	14.21	7.88363
14.215	7.89352	14.215	7.85237
14.22	7.91663	14.22	7.82881
14.225	7.93396	14.225	7.81104
14.23	7.94695	14.23	7.79761
14.235	7.95668	14.235	7.78744
14.24	7.96397	14.24	7.7797
14.245	7.96943	14.245	7.7738
14.25	7.97352	14.25	7.76926
14.255	7.97658	14.255	7.76576
14.26	7.97887	14.26	7.76303
14.265	7.98058	14.265	7.76088
14.27	7.98185	14.27	7.75916
14.275	7.9828	14.275	7.75777
14.28	7.9835	14.28	7.75663
14.285	7.98402	14.285	7.75566
14.29	7.9844	14.29	7.75484
14.295	7.98468	14.295	7.75412
14.3	7.98488	14.3	7.75347
14.305	7.98503	14.305	7.75288
14.31	7.98513	14.31	7.75234
14.315	7.9852	14.315	7.75183
14.32	9.65064	14.32	9.41674
14.325	9.24884	14.325	9.01444
14.33	8.9475	14.33	8.71264
14.335	8.7215	14.335	8.4862
14.34	8.55202	14.34	8.31629
14.345	8.42492	14.345	8.18877
14.35	8.32961	14.35	8.09305
14.355	8.25813	14.355	8.02117
14.36	8.20454	14.36	7.96718
14.365	8.16436	14.365	7.9266
14.37	8.13423	14.37	7.89608
14.375	8.11165	14.375	7.87311
14.38	8.09472	14.38	7.8558
14.385	8.08204	14.385	7.84273
14.39	8.07254	14.39	7.83284
14.395	7.67848	14.395	8.21229
14.4	7.76481	14.4	8.11493
14.405	7.82958	14.405	8.04182
14.41	7.87816	14.41	7.98691
14.415	7.91461	14.415	7.94564
14.42	8.3289	14.42	7.52765
14.425	8.25777	14.425	7.59595
14.43	8.20443	14.43	7.64708
14.435	8.16444	14.435	7.68535
14.44	8.13446	14.44	7.71397
14.445	8.11198	14.445	7.73535
14.45	8.09514	14.45	7.7513
14.455	8.08252	14.455	7.76317
14.46	8.07306	14.46	7.772
14.465	8.06598	14.465	7.77853
14.47	8.06069	14.47	7.78335
14.475	8.05672	14.475	7.78688
14.48	7.66682	14.48	8.17639
14.485	8.14321	14.485	7.69962
14.49	7.73171	14.49	8.11078
14.495	7.80496	14.495	8.03719
14.5	7.8599	14.5	7.98192
14.505	7.90113	14.505	7.94038
14.51	7.93206	14.51	7.90914
14.515	7.95526	14.515	7.88563
14.52	7.97268	14.52	7.86791
14.525	7.98576	14.525	7.85454
14.53	7.99558	14.53	7.84443
14.535	8.00295	14.535	7.83676
14.54	8.00849	14.54	7.83092
14.545	8.01266	14.545	7.82646
14.55	8.0158	14.55	7.82303
14.555	8.40511	14.555	7.43342
14.56	7.9283	14.56	7.90995
14.565	7.95256	14.565	7.88539
14.57	7.97077	14.57	7.86689
14.575	7.98444	14.575	7.85293
14.58	7.99471	14.58	7.84238
14.585	8.00242	14.585	7.83438
14.59	8.00821	14.59	7.8283
14.595	8.01257	14.595	7.82365
14.6	8.01585	14.6	7.82008
14.605	8.01832	14.605	7.81732
14.61	8.02018	14.61	7.81516
14.615	8.02159	14.615	7.81346
14.62	6.35727	14.62	6.14671
14.625	6.75991	14.625	6.54743
14.63	7.06188	14.63	6.84787
14.635	7.28835	14.635	7.07309
14.64	7.4582	14.64	7.24191
14.645	7.58558	14.645	7.36842
14.65	7.6811	14.65	7.4632
14.655	8.13969	14.655	7.14723
14.66	8.10175	14.66	7.29202
14.665	8.07329	14.665	7.4005
14.67	8.05194	14.67	7.48177
14.675	8.03592	14.675	7.54261
14.68	7.63695	14.68	7.97508
14.685	7.71958	14.685	7.91747
14.69	7.54301	14.69	8.11269
14.695	7.65198	14.695	8.0176
14.7	8.35918	14.7	7.3207
14.705	7.64082	14.705	8.04667
14.71	7.72532	14.71	7.96777
14.715	7.78868	14.715	7.9085
14.72	7.8362	14.72	7.86394
14.725	7.87182	14.725	7.83042
14.73	7.89853	14.73	7.80518
14.735	7.91856	14.735	7.78614
14.74	7.93357	14.74	7.77177
14.745	7.94482	14.745	7.76088
14.75	7.95325	14.75	7.75261
14.755	7.95956	14.755	7.74631
14.76	7.96429	14.76	7.74148
14.765	7.96782	14.765	7.73776
14.77	7.97047	14.77	7.73486
14.775	7.97244	14.775	7.73259
14.78	7.97391	14.78	7.73078
14.785	7.97501	14.785	7.72932
14.79	7.97582	14.79	7.72812
14.795	7.97643	14.795	7.72713
14.8	7.97687	14.8	7.72627
14.805	7.97719	14.805	7.72553
14.81	7.97743	14.81	7.72487
14.815	7.97759	14.815	7.72428
14.82	9.64311	14.82	9.38912
14.825	9.24136	14.825	8.98678
14.83	9.32701	14.83	8.298
14.835	9.00939	14.835	8.16319
14.84	8.77119	14.84	8.062
14.845	8.59254	14.845	7.98603
14.85	8.45857	14.85	7.92896
14.855	8.35811	14.855	7.88608
14.86	8.28277	14.86	7.85384
14.865	8.22627	14.865	7.82957
14.87	8.18391	14.87	7.81129
14.875	8.15215	14.875	7.79749
14.88	8.12834	14.88	7.78706
14.885	8.1105	14.885	7.77916
14.89	8.09713	14.89	7.77315
14.895	8.08711	14.895	7.76855
14.9	8.0796	14.9	7.76503
14.905	8.07399	14.905	7.7623
14.91	8.06978	14.91	7.76017
14.915	8.06664	14.915	7.75849
14.92	8.0643	14.92	7.75714
14.925	8.06255	14.925	7.75605
14.93	8.06125	14.93	7.75515
14.935	8.06029	14.935	7.75439
14.94	8.05957	14.94	7.75374
14.945	8.05905	14.945	7.75317
14.95	8.05867	14.95	7.75265
14.955	8.05839	14.955	7.75219
14.96	8.0582	14.96	7.75175
14.965	8.05806	14.965	7.75134
14.97	8.05797	14.97	7.75095
14.975	8.05791	14.975	7.75058
14.98	8.05788	14.98	7.75021
14.985	8.05786	14.985	7.74986
14.99	8.05786	14.99	7.74951
14.995	8.05788	14.995	7.74916
15	21.2072	15	20.8981
15.005	21.2247	15.005	20.9152
15.01	21.2422	15.01	20.9324
15.015	21.2597	15.015	20.9495
15.02	21.2771	15.02	20.9666
15.025	21.2946	15.025	20.9837
15.03	21.3121	15.03	21.0008
15.035	21.3296	15.035	21.0179
15.04	21.3471	15.04	21.0351
15.045	21.3646	15.045	21.0522
15.05	21.3821	15.05	21.0693
15.055	21.3996	15.055	21.0864
15.06	21.4171	15.06	21.1035
15.065	21.4346	15.065	21.1207
15.07	19.7867	15.07	19.4724
15.075	20.206	15.075	19.8913
15.08	20.5249	15.08	20.2098
15.085	20.7683	15.085	20.4529
15.09	20.9553	15.09	20.6395
15.095	21.0999	15.095	20.7837
15.1	21.2127	15.1	20.8961
15.105	21.3016	15.105	20.9847
15.11	21.3727	15.11	21.0554
15.115	19.765	15.115	19.4473
15.12	20.2144	15.12	19.8963
15.125	20.5558	15.125	20.2374
15.13	21.4417	15.13	19.8719
15.135	21.4871	15.135	20.2253
15.14	21.5256	15.14	20.4946
15.145	19.8933	15.145	19.0354
15.15	20.3244	15.15	19.5962
15.155	20.652	15.155	20.0209
15.16	19.2366	15.16	18.6783
15.165	19.8302	15.165	19.3265
15.17	19.2399	15.17	17.5259
15.175	19.2035	15.175	19.0793
15.18	20.8162	15.18	18.6128
15.185	19.3595	15.185	17.6069
15.19	18.2567	15.19	16.8421
15.195	19.7102	15.195	17.2981
15.2	17.8904	15.2	17.2276
15.205	17.7641	15.205	15.9156
15.21	18.0757	15.21	17.8353
15.215	15.993	15.215	14.9382
15.22	16.5537	15.22	13.9237
15.225	16.9005	15.225	16.5464
15.23	14.0458	15.23	11.6442
15.235	14.4294	15.235	12.0254
15.24	15.8922	15.24	14.4462
15.245	14.5295	15.245	12.068
15.25	13.8991	15.25	13.1734
15.255	14.6645	15.255	12.7432
15.26	13.3264	15.26	10.9808
15.265	13.5813	15.265	11.6811
15.27	12.0965	15.27	10.5303
15.275	12.6232	15.275	11.3074
15.28	13.633	15.28	11.254
15.285	12.4781	15.285	9.77412
15.29	12.8702	15.29	10.6862
15.295	13.1536	15.295	11.3594
15.3	7.08077	15.3	4.80502
15.305	10.4025	15.305	8.52912
15.31	9.5666	15.31	7.99499
15.315	5.58357	15.315	4.23814
15.32	8.16352	15.32	5.73666
15.325	8.83878	15.325	8.09825
15.33	5.58682	15.33	3.61343
15.335	6.84074	15.335	6.4401
15.34	5.68806	15.34	3.96938
15.345	7.25242	15.345	6.26871
15.35	9.28143	15.35	7.11508
15.355	6.59943	15.355	5.2696
15.36	6.45451	15.36	5.26915
15.365	4.65467	15.365	3.57756
15.37	4.92985	15.37	3.93383
15.375	6.38884	15.375	6.22742
15.38	6.18818	15.38	5.88888
15.385	7.67717	15.385	7.27435
15.39	3.1608	15.39	3.93121
15.395	5.33798	15.395	5.74165
15.4	0.297748	15.4	0.426272
15.405	1.83108	15.405	0.979241
15.41	0.907645	15.41	0.0841718
15.415	3.50514	15.415	2.70284
15.42	4.4291	15.42	5.66742
15.425	1.5062	15.425	1.49073
15.43	3.87301	15.43	3.68083
15.435	5.63627	15.435	5.31145
15.44	-0.34023	15.44	0.48633
15.445	2.77922	15.445	2.44878
15.45	4.72495	15.45	4.2904
15.455	2.60292	15.455	2.56725
15.46	4.54252	15.46	4.3231
15.465	5.59819	15.465	6.01476
15.47	3.81586	15.47	3.1717
15.475	4.76139	15.475	5.33627
15.48	6.08163	15.48	6.32416
15.485	2.06341	15.485	2.05659
15.49	4.3771	15.49	3.40927
15.495	5.47967	15.495	5.03179
15.5	4.8703	15.5	4.32947
15.505	6.0518	15.505	5.44117
15.51	6.92556	15.51	6.26249
15.515	5.66455	15.515	5.43912
15.52	6.98561	15.52	5.83162
15.525	7.58208	15.525	6.49531
15.53	5.72609	15.53	5.9406
15.535	6.9827	15.535	6.15265
15.54	7.53076	15.54	6.68093
15.545	4.74688	15.545	3.5853
15.55	5.80769	15.55	4.69312
15.555	3.64682	15.555	1.79354
15.56	4.93341	15.56	3.28974
15.565	7.55104	15.565	6.06449
15.57	6.33369	15.57	4.66806
15.575	6.91836	15.575	5.39927
15.58	9.00951	15.58	7.60022
15.585	7.39723	15.585	5.77339
15.59	7.68565	15.59	6.18173
15.595	9.55454	15.595	8.14048
15.6	6.7356	15.6	3.84106
15.605	7.14657	15.605	4.66906
15.61	9.49425	15.61	6.55552
15.615	8.58387	15.615	7.31385
15.62	8.51144	15.62	7.24632
15.625	10.4965	15.625	8.46111
15.63	8.27425	15.63	6.42476
15.635	10.6848	15.635	7.42684
15.64	10.065	15.64	7.27818
15.645	9.58724	15.645	7.15361
15.65	10.6428	15.65	8.95102
15.655	10.0119	15.655	8.39369
15.66	9.91265	15.66	7.57563
15.665	9.83026	15.665	6.94388
15.67	11.0389	15.67	8.50417
15.675	8.61606	15.675	6.34496
15.68	10.489	15.68	7.6417
15.685	11.1264	15.685	9.38438
15.69	10.7091	15.69	8.2585
15.695	10.0013	15.695	7.78275
15.7	11.1226	15.7	9.07811
15.705	10.6865	15.705	7.99856
15.71	11.6298	15.71	9.22291
15.715	10.0477	15.715	9.10252
15.72	9.47123	15.72	8.37569
15.725	11.078	15.725	9.09573
15.73	8.18479	15.73	7.07501
15.735	9.69979	15.735	8.48056
15.74	10.8373	15.74	9.53591
15.745	10.0263	15.745	8.66321
15.75	9.01782	15.75	8.38229
15.755	8.63005	15.755	7.77638
15.76	9.99132	15.76	8.97396
15.765	9.34808	15.765	8.20787
15.77	10.5177	15.77	9.28531
15.775	9.73074	15.775	8.42909
15.78	10.7926	15.78	9.43891
15.785	11.5901	15.785	10.1974
15.79	10.1371	15.79	9.48884
15.795	9.02884	15.795	8.94909
15.8	10.2316	15.8	9.81435
15.805	9.70786	15.805	8.56042
15.81	10.3387	15.81	9.90024
15.815	9.52946	15.815	8.85887
15.82	10.1875	15.82	10.1167
15.825	9.39866	15.825	9.01381
15.83	10.459	15.83	9.83853
15.835	9.20291	15.835	9.17961
15.84	9.90773	15.84	10.3424
15.845	9.15387	15.845	9.16814
15.85	9.85344	15.85	10.3263
15.855	10.761	15.855	10.8139
15.86	9.39039	15.86	9.9022
15.865	10.0092	15.865	10.8753
15.87	9.19086	15.87	9.55879
15.875	9.84201	15.875	10.6102
15.88	8.66089	15.88	9.7393
15.885	8.38191	15.885	8.45213
15.89	9.58312	15.89	9.37993
15.895	10.098	15.895	10.4636
15.9	8.8147	15.9	9.61692
15.905	9.88589	15.905	10.2518
15.91	10.3033	15.91	11.1157
15.915	8.94676	15.915	10.1042
15.92	7.91071	15.92	9.33703
15.925	9.16733	15.925	10.0315
15.93	9.72374	15.93	10.9401
15.935	8.85842	15.935	9.57505
15.94	10.0997	15.94	9.96445
15.945	9.12479	15.945	8.83331
15.95	9.65839	15.95	10.0236
15.955	10.4413	15.955	10.5352
15.96	8.97702	15.96	9.64121
15.965	9.9124	15.965	10.2405
15.97	8.56243	15.97	9.41231
15.975	7.53119	15.975	8.78247
15.98	8.79132	15.98	9.57984
15.985	8.31036	15.985	8.27465
15.99	8.97296	15.99	9.57571
15.995	9.85256	15.995	10.1703
16	8.84764	16	8.9516
16.005	9.35867	16.005	10.0761
16.01	8.45917	16.01	8.87285
16.015	9.43619	16.015	9.62198
16.02	8.11735	16.02	8.90604
16.025	9.16171	16.025	9.63876
16.03	8.2803	16.03	8.52354
16.035	9.89633	16.035	8.71316
16.04	10.0988	16.04	9.86622
16.045	8.9679	16.045	8.68437
16.05	9.77127	16.05	9.44948
16.055	8.32215	16.055	8.74546
16.06	9.26874	16.06	9.48706
16.065	9.97935	16.065	10.0438
16.07	8.84757	16.07	8.79662
16.075	9.65029	16.075	9.51266
16.08	10.253	16.08	10.0502
16.085	10.7056	16.085	10.454
16.09	9.3804	16.09	9.09199
16.095	10.038	16.095	9.72192
16.1	10.5318	16.1	10.1949
16.105	11.5283	16.105	9.92472
16.11	9.98761	16.11	8.68049
16.115	10.4836	16.115	9.39874
16.12	10.8562	16.12	9.93795
16.125	9.47089	16.125	8.67749
16.13	10.0834	16.13	9.38354
16.135	10.5433	16.135	9.91358
16.14	10.8889	16.14	10.3116
16.145	9.48328	16.145	8.94526
16.15	10.0805	16.15	9.57187
16.155	10.529	16.155	10.0423
16.16	10.866	16.16	10.3956
16.165	9.45389	16.165	8.9957
16.17	10.0463	16.17	9.59712
16.175	11.1166	16.175	9.42317
16.18	9.6312	16.18	8.25105
16.185	10.1686	16.185	9.0233
16.19	10.5722	16.19	9.60294
16.195	10.8754	16.195	10.0381
16.2	9.43796	16.2	8.69954
16.205	10.0113	16.205	9.34694
16.21	10.4418	16.21	9.83291
16.215	9.48677	16.215	8.14547
16.22	9.65306	16.22	9.30001
16.225	10.5471	16.225	9.39751
16.23	9.79634	16.23	7.56203
16.235	10.2614	16.235	8.45998
16.24	10.6106	16.24	9.13382
16.245	10.4861	16.245	10.0265
16.25	9.10966	16.25	8.64921
16.255	10.1156	16.255	8.88053
16.26	10.1017	16.26	9.8232
16.265	10.4737	16.265	10.1487
16.27	9.08767	16.27	8.7278
16.275	9.69951	16.275	9.31337
16.28	10.1588	16.28	9.7529
16.285	10.5038	16.285	10.0829
16.29	10.7629	16.29	10.3307
16.295	9.29231	16.295	8.85158
16.3	10.4662	16.3	8.76796
16.305	10.7237	16.305	9.32884
16.31	10.9173	16.31	9.74983
16.315	11.0629	16.315	10.0659
16.32	9.50712	16.32	8.63789
16.325	9.60464	16.325	9.60503
16.33	10.0601	16.33	9.94884
16.335	10.402	16.335	10.207
16.34	8.99351	16.34	8.73554
16.345	9.5884	16.345	9.28312
16.35	10.035	16.35	9.6941
16.355	9.98331	16.355	10.3896
16.36	10.3268	16.36	10.5296
16.365	8.91945	16.365	8.96953
16.37	9.51518	16.37	9.45064
16.375	10.5878	16.375	9.18626
16.38	10.3825	16.38	9.99846
16.385	10.6107	16.385	10.226
16.39	10.7822	16.39	10.397
16.395	9.2458	16.395	8.86005
16.4	9.74475	16.4	9.35851
16.405	9.73236	16.405	10.1195
16.41	10.1053	16.41	10.3087
16.415	10.3853	16.415	10.4508
16.42	8.93031	16.42	8.8923
16.425	9.10332	16.425	9.76146
16.43	9.61528	16.43	10.0317
16.435	9.99957	16.435	10.2346
16.44	8.62272	16.44	8.72163
16.445	9.86677	16.445	8.61253
16.45	9.7899	16.45	9.54113
16.455	10.1144	16.455	9.85593
16.46	10.3581	16.46	10.0922
16.465	10.5412	16.465	10.2697
16.47	8.6265	16.47	9.12454
16.475	9.22351	16.475	9.53489
16.48	9.67156	16.48	9.84286
16.485	10.0079	16.485	10.074
16.49	9.87349	16.49	10.6345
16.495	8.48944	16.495	9.00786
16.5	9.10257	16.5	9.43891
16.505	9.56269	16.505	9.76238
16.51	9.90806	16.51	10.0052
16.515	10.1674	16.515	10.1874
16.52	10.3621	16.52	10.3243
16.525	10.1215	16.525	10.814
16.53	10.3232	16.53	10.7997
16.535	8.80929	16.535	9.12369
16.54	9.32504	16.54	9.51775
16.545	9.7121	16.545	9.81344
16.55	10.0026	16.55	10.0354
16.555	10.2208	16.555	10.202
16.56	11.0102	16.56	9.7016
16.565	10.5922	16.565	10.3367
16.57	10.6609	16.57	10.4313
16.575	9.04724	16.575	8.83702
16.58	9.48814	16.58	9.29233
16.585	9.81904	16.585	9.63395
16.59	10.0675	16.59	9.8903
16.595	10.254	16.595	10.0827
16.6	10.3941	16.6	10.2271
16.605	10.4995	16.605	10.3356
16.61	10.5787	16.61	10.4171
16.615	10.6384	16.615	10.4783
16.62	10.6834	16.62	10.5244
16.625	10.7174	16.625	10.5591
16.63	10.7431	16.63	10.5852
16.635	9.0972	16.635	8.93959
16.64	9.12696	16.64	9.74331
16.645	9.53135	16.645	9.96435
16.65	9.83487	16.65	10.1303
16.655	10.0627	16.655	10.2548
16.66	10.2338	16.66	10.3483
16.665	10.3624	16.665	10.4186
16.67	10.459	16.67	10.4714
16.675	10.5317	16.675	10.5111
16.68	10.5864	16.68	10.541
16.685	10.6277	16.685	10.5636
16.69	8.99344	16.69	8.91519
16.695	9.41886	16.695	9.3299
16.7	9.73811	16.7	9.64103
16.705	9.97775	16.705	9.87448
16.71	10.1577	16.71	10.0497
16.715	10.2928	16.715	10.1811
16.72	10.3944	16.72	10.2799
16.725	10.4707	16.725	10.354
16.73	10.5282	16.73	10.4097
16.735	10.5715	16.735	10.4515
16.74	10.6042	16.74	10.483
16.745	10.6289	16.745	10.5068
16.75	10.6476	16.75	10.5247
16.755	10.6618	16.755	10.5382
16.76	10.6727	16.76	10.5484
16.765	10.6811	16.765	10.5562
16.77	9.02213	16.77	8.89669
16.775	9.429	16.775	9.30306
16.78	10.1213	16.78	9.22097
16.785	9.87185	16.785	9.92829
16.79	10.4538	16.79	9.69005
16.795	10.1216	16.795	10.2803
16.8	10.6414	16.8	9.95417
16.805	10.6496	16.805	10.0916
16.81	10.6559	16.81	10.1947
16.815	10.6609	16.815	10.2721
16.82	10.6647	16.82	10.3302
16.825	10.6678	16.825	10.3739
16.83	10.6703	16.83	10.4068
16.835	10.6723	16.835	10.4315
16.84	10.674	16.84	10.4501
16.845	10.6755	16.845	10.4641
16.85	10.6768	16.85	10.4747
16.855	10.6779	16.855	10.4827
16.86	10.6789	16.86	10.4888
16.865	9.40143	16.865	8.44115
16.87	9.71249	16.87	8.9382
16.875	9.94595	16.875	9.31105
16.88	10.1212	16.88	9.59074
16.885	10.2528	16.885	9.80057
16.89	10.3516	16.89	9.958
16.895	10.4259	16.895	10.0761
16.9	10.4818	16.9	10.1648
16.905	10.5239	16.905	10.2313
16.91	10.5556	16.91	10.2813
16.915	10.5796	16.915	10.3189
16.92	10.9846	16.92	9.96012
16.925	10.9067	16.925	10.073
16.93	10.8484	16.93	10.1577
16.935	10.8049	16.935	10.2213
16.94	10.7724	16.94	10.2691
16.945	10.7482	16.945	10.3049
16.95	10.7302	16.95	10.3319
16.955	10.7168	16.955	10.3522
16.96	10.707	16.96	10.3674
16.965	10.6997	16.965	10.379
16.97	10.6945	16.97	10.3876
16.975	9.02528	16.975	8.72883
16.98	9.42442	16.98	9.13565
16.985	9.09844	16.985	10.0663
16.99	9.47736	16.99	10.141
16.995	9.76169	16.995	10.1971
17	9.97508	17	10.2392
17.005	10.1353	17.005	10.2709
17.01	10.2555	17.01	10.2946
17.015	10.3459	17.015	10.3125
17.02	10.8007	17.02	9.93898
17.025	10.3732	17.025	10.4277
17.03	10.4345	17.03	10.4124
17.035	10.8676	17.035	10.014
17.04	10.4238	17.04	10.4841
17.045	10.8598	17.045	10.0679
17.05	10.8051	17.05	10.1376
17.055	10.3773	17.055	10.5769
17.06	10.8254	17.06	10.1376
17.065	10.7797	17.065	10.1901
17.07	10.7456	17.07	10.2294
17.075	10.7202	17.075	10.259
17.08	10.7013	17.08	10.2812
17.085	10.6872	17.085	10.2979
17.09	10.6768	17.09	10.3105
17.095	10.6691	17.095	10.3199
17.1	10.6635	17.1	10.3271
17.105	10.6594	17.105	10.3325
17.11	10.6565	17.11	10.3366
17.115	10.029	17.115	10.9652
17.12	10.8072	17.12	10.1879
17.125	10.1423	17.125	10.8537
17.13	10.267	17.13	10.7299
17.135	10.3607	17.135	10.637
17.14	10.431	17.14	10.5674
17.145	10.484	17.145	10.5153
17.15	10.5238	17.15	10.4762
17.155	10.5538	17.155	10.4469
17.16	10.5765	17.16	10.425
17.165	10.5936	17.165	10.4086
17.17	10.6066	17.17	10.3964
17.175	10.6164	17.175	10.3873
17.18	10.624	17.18	10.3804
17.185	8.96438	17.185	8.70997
17.19	9.37069	17.19	9.10803
17.195	9.67554	17.195	9.4066
17.2	9.27882	17.2	10.256
17.205	9.60466	17.205	10.2699
17.21	9.84917	17.21	10.2802
17.215	10.0327	17.215	10.2881
17.22	10.1704	17.22	10.2939
17.225	10.2738	17.225	10.2984
17.23	10.3515	17.23	10.3017
17.235	10.4099	17.235	10.3043
17.24	10.4538	17.24	10.3062
17.245	10.4868	17.245	10.3077
17.25	10.8987	17.25	9.92185
17.255	10.8258	17.255	10.0144
17.26	10.7713	17.26	10.0838
17.265	10.7305	17.265	10.1359
17.27	10.7	17.27	10.175
17.275	10.6773	17.275	10.2043
17.28	10.0349	17.28	10.8518
17.285	10.1765	17.285	10.7142
17.29	10.2828	17.29	10.611
17.295	10.3626	17.295	10.5336
17.3	10.4226	17.3	10.4756
17.305	10.4677	17.305	10.4321
17.31	10.5017	17.31	10.3996
17.315	10.5272	17.315	10.3752
17.32	10.5466	17.32	10.3569
17.325	10.5611	17.325	10.3432
17.33	10.5722	17.33	10.3329
17.335	10.9676	17.335	9.93833
17.34	10.8823	17.34	10.0243
17.345	10.8185	17.345	10.0887
17.35	10.7708	17.35	10.1371
17.355	10.1096	17.355	10.7989
17.36	10.2371	17.36	10.672
17.365	10.3329	17.365	10.5769
17.37	10.4048	17.37	10.5055
17.375	10.4589	17.375	10.452
17.38	10.8865	17.38	10.025
17.385	10.4385	17.385	10.4736
17.39	10.8714	17.39	10.0412
17.395	10.8144	17.395	10.0988
17.4	10.7717	17.4	10.1421
17.405	10.7398	17.405	10.1745
17.41	10.716	17.41	10.1989
17.415	10.0728	17.415	10.8427
17.42	10.2138	17.42	10.7023
17.425	10.3196	17.425	10.597
17.43	10.3991	17.43	10.518
17.435	10.4589	17.435	10.4589
17.44	10.8907	17.44	10.0276
17.445	10.4459	17.445	10.4729
17.45	10.8812	17.45	10.0382
17.455	9.16059	17.455	8.42858
17.46	9.52109	17.46	8.87229
17.465	9.79156	17.465	9.20509
17.47	9.99451	17.47	9.45469
17.475	10.1468	17.475	9.6419
17.48	10.2611	17.48	9.78231
17.485	9.7215	17.485	10.5131
17.49	9.94013	17.49	10.4379
17.495	10.1042	17.495	10.3816
17.5	10.2274	17.5	10.3393
17.505	10.3198	17.505	10.3076
17.51	10.7762	17.51	9.89691
17.515	10.3498	17.515	10.3577
17.52	10.7988	17.52	9.93449
17.525	10.7539	17.525	9.99895
17.53	10.7203	17.53	10.0473
17.535	10.6951	17.535	10.0836
17.54	10.6764	17.54	10.1108
17.545	10.0369	17.545	10.7567
17.55	10.8062	17.55	9.99238
17.555	10.1345	17.555	10.6679
17.56	10.2541	17.56	10.5513
17.565	10.3438	17.565	10.4638
17.57	10.4113	17.57	10.3982
17.575	10.4619	17.575	10.3491
17.58	10.5	17.58	10.3122
17.585	10.5287	17.585	10.2845
17.59	10.5503	17.59	10.2638
17.595	10.5666	17.595	10.2483
17.6	10.9658	17.6	9.84968
17.605	10.8835	17.605	9.93261
17.61	10.8218	17.61	9.99482
17.615	10.7757	17.615	10.0415
17.62	10.1157	17.62	10.702
17.625	10.244	17.625	10.5741
17.63	10.3404	17.63	10.4782
17.635	10.4128	17.635	10.4062
17.64	10.4672	17.64	10.3523
17.645	10.508	17.645	10.3119
17.65	10.5388	17.65	10.2815
17.655	10.5619	17.655	10.2588
17.66	10.9663	17.66	9.85483
17.665	10.5009	17.665	10.3207
17.67	10.9207	17.67	9.90123
17.675	9.84142	17.675	10.981
17.68	10.4241	17.68	10.3987
17.685	10.4793	17.685	10.3439
17.69	10.5209	17.69	10.3028
17.695	10.5521	17.695	10.2719
17.7	10.5756	17.7	10.2488
17.705	10.5933	17.705	10.2315
17.71	10.6067	17.71	10.2185
17.715	10.6169	17.715	10.2088
17.72	10.6246	17.72	10.2015
17.725	10.6304	17.725	10.1961
17.73	10.6349	17.73	10.192
17.735	10.6384	17.735	10.1889
17.74	10.641	17.74	10.1867
17.745	10.6431	17.745	10.185
17.75	10.6448	17.75	10.1837
17.755	10.0207	17.755	10.8083
17.76	10.1759	17.76	10.6534
17.765	10.2925	17.765	10.5373
17.77	10.38	17.77	10.4502
17.775	10.4457	17.775	10.3849
17.78	10.495	17.78	10.3359
17.785	10.5322	17.785	10.2992
17.79	10.5601	17.79	10.2717
17.795	10.5811	17.795	10.2511
17.8	10.597	17.8	10.2356
17.805	10.609	17.805	10.224
17.81	10.6181	17.81	10.2154
17.815	10.625	17.815	10.2089
17.82	10.6303	17.82	10.204
17.825	10.6343	17.825	10.2004
17.83	10.6374	17.83	10.1977
17.835	10.6398	17.835	10.1956
17.84	10.6418	17.84	10.1941
17.845	10.6433	17.845	10.193
17.85	10.019	17.85	10.8177
17.855	10.1742	17.855	10.6629
17.86	10.2907	17.86	10.5468
17.865	10.3781	17.865	10.4598
17.87	10.4438	17.87	10.3945
17.875	10.4932	17.875	10.3456
17.88	10.5302	17.88	10.3089
17.885	10.5582	17.885	10.2814
17.89	10.5792	17.89	10.2608
17.895	10.982	17.895	9.8584
17.9	10.5154	17.9	10.3254
17.905	10.9343	17.905	9.9069
17.91	10.8667	17.91	9.97489
17.915	10.8161	17.915	10.0259
17.92	10.3913	17.92	10.4511
17.925	10.8416	17.925	10.0012
17.93	10.4106	17.93	10.4326
17.935	10.8563	17.935	9.98736
17.94	10.8088	17.94	10.0353
17.945	9.76078	17.945	11.0837
17.95	10.367	17.95	10.4779
17.955	10.0529	17.955	10.7924
17.96	10.5862	17.96	10.2595
17.965	10.2175	17.965	10.6286
17.97	10.7098	17.97	10.1367
17.975	10.6973	17.975	10.1496
17.98	10.3011	17.98	10.5462
17.985	10.7728	17.985	10.0749
17.99	10.3579	17.99	10.4903
17.995	10.4286	17.995	10.4199
18	10.8687	18	9.98024
18.005	10.4301	18.005	10.4193
18.01	10.4831	18.01	10.3667
18.015	10.5229	18.015	10.3273
18.02	10.5528	18.02	10.2978
18.025	8.90998	18.025	8.61025
18.03	9.32881	18.03	8.99549
18.035	9.643	18.035	9.28441
18.04	9.87871	18.04	9.50109
18.045	10.0556	18.045	9.6636
18.05	10.1883	18.05	9.78548
18.055	10.2879	18.055	9.87688
18.06	10.3626	18.06	9.94542
18.065	10.4188	18.065	9.99683
18.07	10.461	18.07	10.0354
18.075	10.4927	18.075	10.0643
18.08	10.5165	18.08	10.086
18.085	10.5345	18.085	10.1022
18.09	10.548	18.09	10.1144
18.095	9.93275	18.095	10.749
18.1	10.0946	18.1	10.6017
18.105	10.2161	18.105	10.4912
18.11	10.3073	18.11	10.4083
18.115	10.3758	18.115	10.3461
18.12	10.4272	18.12	10.2995
18.125	10.4658	18.125	10.2646
18.13	10.4949	18.13	10.2383
18.135	10.5167	18.135	10.2186
18.14	10.5332	18.14	10.2039
18.145	10.5456	18.145	10.1928
18.15	10.5549	18.15	10.1845
18.155	10.562	18.155	10.1782
18.16	10.5674	18.16	10.1736
18.165	10.5716	18.165	10.17
18.17	10.5747	18.17	10.1674
18.175	10.5771	18.175	10.1654
18.18	10.579	18.18	10.1639
18.185	10.5805	18.185	10.1628
18.19	10.5817	18.19	10.1619
18.195	10.5827	18.195	10.1613
18.2	10.5835	18.2	10.1608
18.205	10.5841	18.205	10.1604
18.21	10.5847	18.21	10.1602
18.215	10.5852	18.215	10.16
18.22	10.5856	18.22	10.1598
18.225	10.586	18.225	10.1597
18.23	10.5864	18.23	10.1596
18.235	10.5867	18.235	10.1595
18.24	10.587	18.24	10.1594
18.245	10.5873	18.245	10.1594
18.25	10.5876	18.25	10.1593
18.255	10.5879	18.255	10.1593
18.26	10.5882	18.26	10.1592
18.265	10.5885	18.265	10.1592
18.27	10.5888	18.27	10.1592
18.275	10.5891	18.275	10.1592
18.28	10.5894	18.28	10.1591
18.285	10.5896	18.285	10.1591
18.29	10.5899	18.29	10.1591
18.295	10.2032	18.295	10.546
18.3	10.0566	18.3	10.6929
18.305	9.80121	18.305	10.9486
18.31	10.3785	18.31	10.3715
18.315	10.0428	18.315	10.7075
18.32	10.1729	18.32	10.5777
18.325	10.6575	18.325	10.0933
18.33	10.2522	18.33	10.4989
18.335	10.3301	18.335	10.4212
18.34	10.3887	18.34	10.3629
18.345	10.4326	18.345	10.3192
18.35	10.4657	18.35	10.2864
18.355	10.4905	18.355	10.2618
18.36	10.5092	18.36	10.2433
18.365	10.5233	18.365	10.2295
18.37	10.534	18.37	10.2191
18.375	10.542	18.375	10.2113
18.38	10.5481	18.38	10.2055
18.385	10.5528	18.385	10.2011
18.39	10.5563	18.39	10.1978
18.395	10.5591	18.395	10.1953
18.4	10.5612	18.4	10.1935
18.405	10.5628	18.405	10.1921
18.41	10.5641	18.41	10.191
18.415	10.5652	18.415	10.1902
18.42	10.566	18.42	10.1896
18.425	10.5667	18.425	10.1892
18.43	10.5673	18.43	10.1888
18.435	10.5679	18.435	10.1886
18.44	10.5683	18.44	10.1884
18.445	10.5687	18.445	10.1882
18.45	10.5691	18.45	10.1881
18.455	10.5694	18.455	10.188
18.46	10.5698	18.46	10.1879
18.465	10.5701	18.465	10.1879
18.47	10.1834	18.47	10.5748
18.475	10.6623	18.475	10.0961
18.48	10.2528	18.48	10.506
18.485	10.3275	18.485	10.4315
18.49	10.3837	18.49	10.3756
18.495	10.4258	18.495	10.3337
18.5	10.4575	18.5	10.3022
18.505	10.4813	18.505	10.2787
18.51	10.4993	18.51	10.261
18.515	10.5128	18.515	10.2477
18.52	10.523	18.52	10.2377
18.525	10.5308	18.525	10.2303
18.53	10.5366	18.53	10.2247
18.535	10.5411	18.535	10.2205
18.54	10.5445	18.54	10.2173
18.545	10.5471	18.545	10.2149
18.55	10.5492	18.55	10.2131
18.555	10.5508	18.555	10.2118
18.56	10.552	18.56	10.2108
18.565	10.553	18.565	10.21
18.57	10.5539	18.57	10.2095
18.575	10.5546	18.575	10.209
18.58	10.5551	18.58	10.2087
18.585	10.5557	18.585	10.2084
18.59	10.5561	18.59	10.2082
18.595	10.5565	18.595	10.2081
18.6	10.1699	18.6	10.5949
18.605	10.2619	18.605	10.5032
18.61	10.331	18.61	10.4344
18.615	10.3829	18.615	10.3828
18.62	10.4218	18.62	10.3441
18.625	10.4511	18.625	10.315
18.63	10.4732	18.63	10.2932
18.635	10.4898	18.635	10.2769
18.64	10.5023	18.64	10.2646
18.645	10.5117	18.645	10.2554
18.65	10.5189	18.65	10.2485
18.655	10.5243	18.655	10.2434
18.66	10.5285	18.66	10.2395
18.665	10.1447	18.665	10.6235
18.67	10.2388	18.67	10.5296
18.675	10.6964	18.675	10.0723
18.68	10.2708	18.68	10.4981
18.685	10.3336	18.685	10.4356
18.69	10.3808	18.69	10.3887
18.695	10.4162	18.695	10.3535
18.7	10.4428	18.7	10.3272
18.705	10.4629	18.705	10.3074
18.71	10.478	18.71	10.2925
18.715	10.4894	18.715	10.2814
18.72	10.498	18.72	10.273
18.725	10.5045	18.725	10.2668
18.73	10.5095	18.73	10.262
18.735	10.5132	18.735	10.2585
18.74	10.5162	18.74	10.2559
18.745	10.5184	18.745	10.2539
18.75	10.5202	18.75	10.2524
18.755	10.1346	18.755	10.6382
18.76	10.6143	18.76	10.1587
18.765	10.2053	18.765	10.568
18.77	10.2805	18.77	10.493
18.775	10.337	18.775	10.4368
18.78	10.3794	18.78	10.3946
18.785	10.4113	18.785	10.363
18.79	10.4353	18.79	10.3393
18.795	10.4534	18.795	10.3215
18.8	10.467	18.8	10.3081
18.805	10.4772	18.805	10.2981
18.81	10.485	18.81	10.2906
18.815	10.4909	18.815	10.2849
18.82	10.4954	18.82	10.2807
18.825	10.4988	18.825	10.2775
18.83	8.83609	18.83	8.60974
18.835	9.23996	18.835	9.00977
18.84	9.54292	18.84	9.30977
18.845	9.77018	18.845	9.53475
18.85	9.94068	18.85	9.70346
18.855	10.0686	18.855	9.82997
18.86	9.77764	18.86	10.3118
18.865	9.94134	18.865	10.2912
18.87	10.0642	18.87	10.2758
18.875	10.1563	18.875	10.2642
18.88	10.2255	18.88	10.2555
18.885	10.2774	18.885	10.249
18.89	10.3164	18.89	10.244
18.895	10.3457	18.895	10.2403
18.9	10.3677	18.9	10.2375
18.905	10.3843	18.905	10.2353
18.91	10.3968	18.91	10.2337
18.915	10.4062	18.915	10.2325
18.92	10.4133	18.92	10.2315
18.925	10.4186	18.925	10.2308
18.93	10.4227	18.93	10.2302
18.935	10.4258	18.935	10.2297
18.94	10.4282	18.94	10.2294
18.945	10.43	18.945	10.2291
18.95	10.4314	18.95	10.2288
18.955	10.4326	18.955	10.2286
18.96	10.4334	18.96	10.2285
18.965	10.4342	18.965	10.2283
18.97	10.8217	18.97	9.84121
18.975	10.3436	18.975	10.3197
18.98	10.3669	18.98	10.2967
18.985	10.7714	18.985	9.89241
18.99	10.306	18.99	10.358
18.995	10.3388	18.995	10.3253
19	10.7505	19	9.91385
19.005	10.2905	19.005	10.374
19.01	10.7143	19.01	9.95033
19.015	10.6504	19.015	10.0144
19.02	10.2155	19.02	10.4494
19.025	10.6582	19.025	10.0068
19.03	10.2215	19.03	10.4436
19.035	10.6628	19.035	10.0024
19.04	10.612	19.04	10.0533
19.045	11.8524	19.045	12.1439
19.05	11.9006	19.05	11.292
19.055	11.555	19.055	11.035
19.06	11.2959	19.06	10.8423
19.065	11.1016	19.065	10.6977
19.07	10.956	19.07	10.5893
19.075	11.4723	19.075	9.88248
19.08	11.2363	19.08	9.97565
19.085	11.0594	19.085	10.0455
19.09	10.9268	19.09	10.0979
19.095	10.8274	19.095	10.1372
19.1	10.753	19.1	10.1667
19.105	10.6972	19.105	10.1888
19.11	10.6554	19.11	10.2053
19.115	10.6241	19.115	10.2177
19.12	10.6008	19.12	10.2271
19.125	10.5833	19.125	10.234
19.13	10.5703	19.13	10.2393
19.135	10.5606	19.135	10.2432
19.14	10.5533	19.14	10.2461
19.145	10.548	19.145	10.2483
19.15	10.5441	19.15	10.25
19.155	10.5412	19.155	10.2512
19.16	10.5391	19.16	10.2521
19.165	10.5376	19.165	10.2528
19.17	10.5365	19.17	10.2533
19.175	10.5358	19.175	10.2537
19.18	10.5353	19.18	10.2539
19.185	10.1481	19.185	10.6411
19.19	10.2396	19.19	10.5496
19.195	10.6953	19.195	10.094
19.2	10.2682	19.2	10.5211
19.205	10.7169	19.205	10.0727
19.21	10.2846	19.21	10.5051
19.215	10.3423	19.215	10.4476
19.22	9.10723	19.22	8.35208
19.225	9.06305	19.225	9.20013
19.23	9.41182	19.23	9.45429
19.235	9.67345	19.235	9.64488
19.24	9.86973	19.24	9.7878
19.245	10.017	19.245	9.89497
19.25	10.1275	19.25	9.97532
19.255	10.2104	19.255	10.0356
19.26	10.2726	19.26	10.0807
19.265	10.3193	19.265	10.1146
19.27	10.3544	19.27	10.1399
19.275	10.3808	19.275	10.1589
19.28	10.4006	19.28	10.1731
19.285	10.4156	19.285	10.1838
19.29	10.0399	19.29	10.5787
19.295	10.14	19.295	10.493
19.3	10.6021	19.3	10.0417
19.305	10.1799	19.305	10.4721
19.31	10.2452	19.31	10.4129
19.315	10.2942	19.315	10.3686
19.32	10.331	19.32	10.3353
19.325	10.3586	19.325	10.3103
19.33	10.3794	19.33	10.2915
19.335	10.395	19.335	10.2774
19.34	10.4068	19.34	10.2668
19.345	10.4157	19.345	10.2588
19.35	10.4224	19.35	10.2528
19.355	10.4275	19.355	10.2483
19.36	10.4314	19.36	10.2449
19.365	10.4343	19.365	10.2423
19.37	10.4366	19.37	10.2403
19.375	10.4383	19.375	10.2388
19.38	10.4397	19.38	10.2377
19.385	10.4407	19.385	10.2368
19.39	10.0546	19.39	10.6231
19.395	10.147	19.395	10.5309
19.4	10.2163	19.4	10.4617
19.405	10.2683	19.405	10.4098
19.41	10.3074	19.41	10.3708
19.415	10.3367	19.415	10.3416
19.42	10.3588	19.42	10.3197
19.425	10.3754	19.425	10.3032
19.43	10.3879	19.43	10.2908
19.435	10.3973	19.435	10.2815
19.44	10.4044	19.44	10.2745
19.445	10.4098	19.445	10.2692
19.45	10.4139	19.45	10.2652
19.455	10.417	19.455	10.2622
19.46	10.4194	19.46	10.2599
19.465	10.4212	19.465	10.2582
19.47	10.4227	19.47	10.2568
19.475	10.4238	19.475	10.2558
19.48	10.4247	19.48	10.255
19.485	10.4254	19.485	10.2544
19.49	10.426	19.49	10.2539
19.495	10.4265	19.495	10.2536
19.5	10.4269	19.5	10.2532
19.505	10.4272	19.505	10.253
19.51	10.4276	19.51	10.2528
19.515	10.4279	19.515	10.2526
19.52	10.4281	19.52	10.2524
19.525	10.4284	19.525	10.2523
19.53	10.4286	19.53	10.2521
19.535	10.4288	19.535	10.252
19.54	10.429	19.54	10.2519
19.545	10.4293	19.545	10.2518
19.55	10.8164	19.55	9.86473
19.555	10.338	19.555	10.3432
19.56	10.3611	19.56	10.3202
19.565	10.7655	19.565	9.91598
19.57	10.3	19.57	10.3816
19.575	10.3327	19.575	10.3489
19.58	10.7443	19.58	9.93743
19.585	10.6712	19.585	10.0107
19.59	10.6164	19.59	10.0656
19.595	10.5753	19.595	10.1067
19.6	10.5446	19.6	10.1376
19.605	10.5216	19.605	10.1607
19.61	10.5044	19.61	10.178
19.615	10.4915	19.615	10.1909
19.62	10.482	19.62	10.2006
19.625	10.4748	19.625	10.2079
19.63	10.4695	19.63	10.2133
19.635	10.4656	19.635	10.2173
19.64	10.4627	19.64	10.2203
19.645	10.4605	19.645	10.2225
19.65	10.459	19.65	10.2242
19.655	10.4579	19.655	10.2254
19.66	10.4571	19.66	10.2263
19.665	9.83109	19.665	10.8524
19.67	10.6104	19.67	10.0732
19.675	10.5716	19.675	10.1121
19.68	9.91712	19.68	10.7667
19.685	10.0496	19.685	10.6343
19.69	10.1489	19.69	10.5351
19.695	10.2235	19.695	10.4606
19.7	10.2795	19.7	10.4047
19.705	10.3216	19.705	10.3628
19.71	10.3531	19.71	10.3313
19.715	10.7638	19.715	9.92071
19.72	10.3031	19.72	10.3816
19.725	10.7263	19.725	9.95837
19.73	10.662	19.73	10.0228
19.735	10.6138	19.735	10.0711
19.74	10.5777	19.74	10.1074
19.745	10.5506	19.745	10.1345
19.75	10.5304	19.75	10.1548
19.755	10.5153	19.755	10.17
19.76	10.504	19.76	10.1814
19.765	12.161	19.765	11.8554
19.77	11.7529	19.77	11.4599
19.775	11.4469	19.775	11.1633
19.78	11.2174	19.78	10.9409
19.785	11.0454	19.785	10.774
19.79	10.9165	19.79	10.6489
19.795	10.8199	19.795	10.555
19.8	10.7474	19.8	10.4846
19.805	10.6932	19.805	10.4318
19.81	10.6526	19.81	10.3922
19.815	10.6222	19.815	10.3625
19.82	10.5995	19.82	10.3402
19.825	10.5825	19.825	10.3235
19.83	10.5698	19.83	10.311
19.835	10.5604	19.835	10.3016
19.84	10.5534	19.84	10.2945
19.845	10.5482	19.845	10.2892
19.85	10.5444	19.85	10.2852
19.855	10.5416	19.855	10.2823
19.86	10.5396	19.86	10.28
19.865	10.925	19.865	9.89138
19.87	10.4454	19.87	10.3687
19.875	10.8546	19.875	9.9579
19.88	10.3927	19.88	10.4186
19.885	10.8152	19.885	9.9953
19.89	10.3633	19.89	10.4466
19.895	10.7932	19.895	10.0163
19.9	10.7339	19.9	10.0755
19.905	10.3025	19.905	10.5067
19.91	10.7479	19.91	10.0614
19.915	10.3132	19.915	10.4962
19.92	10.756	19.92	10.0535
19.925	10.7063	19.925	10.1033
19.93	10.6691	19.93	10.1407
19.935	10.6413	19.935	10.1687
19.94	10.6205	19.94	10.1897
19.945	10.605	19.945	10.2055
19.95	10.5934	19.95	10.2173
19.955	10.5848	19.955	10.2261
19.96	10.5784	19.96	10.2328
19.965	8.90824	19.965	8.57234
19.97	9.30658	19.97	8.97789
19.975	9.60539	19.975	9.28204
19.98	9.82955	19.98	9.51012
19.985	9.99771	19.985	9.68116
19.99	10.1239	19.99	9.80942
19.995	10.2186	19.995	9.90559
20	-2.8597	20	-3.17161
20.005	-2.82381	20.005	-3.13501
20.01	-2.80121	20.01	-3.11195
20.015	-2.78858	20.015	-3.09903
20.02	-2.78342	20.02	-3.09373
20.025	-2.78386	20.025	-3.09414
20.03	-3.17545	20.03	-2.71189
20.035	-3.0916	20.035	-2.81145
20.04	-2.64608	20.04	-3.27746
20.045	-3.71054	20.045	-2.23706
20.05	-3.12113	20.05	-2.85322
20.055	-1.78679	20.055	-0.885525
20.06	-1.67242	20.06	-1.83382
20.065	-1.9728	20.065	-2.16755
20.07	-2.82787	20.07	-1.79672
20.075	-2.85019	20.075	-2.14624
20.08	-2.87123	20.08	-2.41275
20.085	-1.22591	20.085	-0.951597
20.09	-1.6471	20.09	-1.51097
20.095	-2.59274	20.095	-1.30937
20.1	-1.01759	20.1	-0.120384
20.105	-1.49138	20.105	-0.883866
20.11	-1.85098	20.11	-1.4608
20.115	-1.08502	20.115	0.393046
20.12	-1.54242	20.12	-0.495038
20.125	-1.50276	20.125	-1.55235
20.13	-0.193728	20.13	-0.302383
20.135	0.172847	20.135	1.27079
20.14	1.08135	20.14	1.83764
20.145	0.494594	20.145	0.220687
20.15	2.37379	20.15	3.34187
20.155	2.76592	20.155	3.41888
20.16	0.779517	20.16	2.44704
20.165	3.6266	20.165	4.03455
20.17	3.73956	20.17	3.96651
20.175	1.54384	20.175	2.88593
20.18	5.89938	20.18	6.05734
20.185	4.8674	20.185	6.15189
20.19	7.81944	20.19	9.17931
20.195	7.37061	20.195	7.53025
20.2	4.99731	20.2	5.02045
20.205	8.59654	20.205	7.74337
20.21	7.62296	20.21	6.87623
20.215	6.27795	20.215	6.86196
20.22	7.95548	20.22	7.51706
20.225	7.19159	20.225	6.75002
20.23	7.01635	20.23	5.79848
20.235	11.2715	20.235	10.7121
20.24	9.76236	20.24	9.21405
20.245	9.02833	20.245	7.71434
20.25	13.4899	20.25	11.5915
20.255	11.5126	20.255	9.93944
20.26	10.4274	20.26	8.32437
20.265	10.2826	20.265	9.79674
20.27	9.54434	20.27	8.25088
20.275	8.61981	20.275	7.48435
20.28	14.986	20.28	13.1951
20.285	13.1733	20.285	10.8806
20.29	11.4431	20.29	9.53775
20.295	15.5398	20.295	13.151
20.3	13.676	20.3	10.9144
20.305	11.9075	20.305	9.63003
20.31	15.9756	20.31	13.2873
20.315	13.7036	20.315	11.4707
20.32	12.0109	20.32	10.1197
20.325	14.4706	20.325	12.0616
20.33	12.6432	20.33	10.6096
20.335	11.671	20.335	9.14507
20.34	15.5678	20.34	13.4362
20.345	13.5493	20.345	11.7134
20.35	17.4301	20.35	15.0422
20.355	15.0179	20.355	12.9795
20.36	13.2205	20.36	11.4442
20.365	17.2673	20.365	14.9137
20.37	14.9796	20.37	12.9567
20.375	13.2757	20.375	11.5008
20.38	13.675	20.38	12.086
20.385	14.6264	20.385	11.9258
20.39	13.0776	20.39	10.7899
20.395	13.5934	20.395	11.6153
20.4	12.3413	20.4	10.5953
20.405	11.4143	20.405	9.84232
20.41	14.0618	20.41	12.6203
20.415	12.3708	20.415	11.801
20.42	11.8834	20.42	10.4298
20.425	12.4266	20.425	11.8476
20.43	12.2026	20.43	10.2649
20.435	11.4235	20.435	9.7132
20.44	12.5168	20.44	10.977
20.445	12.9765	20.445	12.3385
20.45	10.3991	20.45	9.67362
20.455	15.1255	20.455	14.3343
20.46	13.3429	20.46	13.2764
20.465	13.0258	20.465	11.4879
20.47	14.7339	20.47	14.8868
20.475	13.4893	20.475	13.3829
20.48	12.5684	20.48	12.2674
20.485	16.1125	20.485	17.2132
20.49	14.8327	20.49	14.9802
20.495	13.0185	20.495	14.1848
20.5	15.4762	20.5	16.4567
20.505	12.1184	20.505	13.4526
20.51	11.6454	20.51	12.4811
20.515	12.1949	20.515	14.2044
20.52	11.9711	20.52	12.8564
20.525	11.5746	20.525	12.0995
20.53	13.4599	20.53	16.0361
20.535	12.3435	20.535	14.9409
20.54	12.5264	20.54	13.1249
20.545	13.1832	20.545	14.5998
20.55	11.5477	20.55	14.5579
20.555	14.1345	20.555	17.4004
20.56	12.6827	20.56	16.3465
20.565	11.4287	20.565	12.4164
20.57	10.9004	20.57	12.3842
20.575	9.88667	20.575	13.0036
20.58	9.75756	20.58	12.8629
20.585	10.1458	20.585	12.2983
20.59	9.48501	20.59	12.8529
20.595	9.06582	20.595	9.88776
20.6	9.81674	20.6	13.2573
20.605	8.46377	20.605	11.0941
20.61	9.35158	20.61	10.8972
20.615	8.77674	20.615	12.0164
20.62	7.93705	20.62	9.95988
20.625	8.10444	20.625	10.9483
20.63	8.47948	20.63	11.4665
20.635	9.39435	20.635	11.2478
20.64	8.42546	20.64	9.43442
20.645	8.496	20.645	10.6053
20.65	8.1455	20.65	8.58252
20.655	9.57645	20.655	12.0306
20.66	8.59032	20.66	10.0699
20.665	8.648	20.665	11.1303
20.67	7.66242	20.67	9.65022
20.675	8.58743	20.675	10.2043
20.68	7.62909	20.68	8.96765
20.685	8.57454	20.685	9.70433
20.69	9.29696	20.69	10.2701
20.695	8.18673	20.695	9.04232
20.7	9.0183	20.7	9.78567
20.705	7.98994	20.705	8.69108
20.71	7.21754	20.71	7.86894
20.715	8.3025	20.715	8.91654
20.72	7.46421	20.72	8.05016
20.725	6.83438	20.725	7.3992
20.73	8.41323	20.73	8.18825
20.735	7.56351	20.735	7.50984
20.74	6.92512	20.74	6.99988
20.745	6.83218	20.745	6.2293
20.75	6.37952	20.75	6.03207
20.755	7.70431	20.755	7.54839
20.76	7.43289	20.76	6.64664
20.765	7.88629	20.765	8.64193
20.77	9.63695	20.77	8.75462
20.775	8.92123	20.775	7.56392
20.78	8.00153	20.78	7.05166
20.785	9.36306	20.785	7.94481
20.79	8.35043	20.79	7.34456
20.795	7.97688	20.795	6.50635
20.8	8.74069	20.8	8.1624
20.805	7.90306	20.805	7.51108
20.81	9.32618	20.81	8.29997
20.815	8.35978	20.815	7.62157
20.82	8.02094	20.82	6.72478
20.825	9.4363	20.825	7.71146
20.83	8.85104	20.83	6.79447
20.835	9.45614	20.835	8.39149
20.84	8.88647	20.84	7.30901
20.845	8.07641	20.845	6.87802
20.85	9.52025	20.85	7.83221
20.855	8.56945	20.855	7.27785
20.86	8.24237	20.86	6.47414
20.865	9.66661	20.865	7.53069
20.87	8.70113	20.87	7.05311
20.875	10.0284	20.875	7.97241
20.88	8.36481	20.88	8.01739
20.885	8.12641	20.885	7.03996
20.89	9.23025	20.89	8.3532
20.895	8.79331	20.895	7.29936
20.9	8.08287	20.9	6.88993
20.905	9.21457	20.905	8.24732
20.91	8.79854	20.91	7.22662
20.915	8.49075	20.915	6.4551
20.92	9.54259	20.92	7.92282
20.925	8.4412	20.925	7.61036
20.93	9.52114	20.93	8.79911
20.935	10.7317	20.935	9.31737
20.94	9.60611	20.94	8.43618
20.945	9.14805	20.945	7.3875
20.95	10.0872	20.95	8.6474
20.955	8.51448	20.955	8.56608
20.96	10.0098	20.96	9.15944
20.965	9.09769	20.965	8.33463
20.97	8.41288	20.97	7.7152
20.975	9.95087	20.975	8.52828
20.98	10.7363	20.98	9.53366
20.985	9.67368	20.985	8.63603
20.99	10.5414	20.99	9.62744
20.995	9.92759	20.995	8.3324
21	8.45916	21	8.36771
21.005	9.64581	21.005	9.43557
21.01	8.88422	21.01	8.58484
21.015	9.97775	21.015	9.61146
21.02	9.14633	21.02	8.72981
21.025	10.1875	21.025	9.73326
21.03	9.31685	21.03	8.83426
21.035	10.3286	21.035	9.82472
21.04	9.43591	21.04	8.91599
21.045	8.76576	21.045	8.23377
21.05	7.63705	21.05	8.34691
21.055	9.07855	21.055	9.47322
21.06	8.50818	21.06	8.6664
21.065	8.0798	21.065	8.06063
21.07	9.03635	21.07	9.65799
21.075	8.48415	21.075	8.82262
21.08	8.06942	21.08	8.19546
21.085	9.42317	21.085	9.38984
21.09	8.78703	21.09	8.63413
21.095	8.30935	21.095	8.06672
21.1	7.95053	21.1	7.64055
21.105	7.2939	21.105	7.70725
21.11	8.84811	21.11	9.0402
21.115	8.36234	21.115	8.38841
21.12	7.99745	21.12	7.89898
21.125	7.72324	21.125	7.53131
21.13	9.18243	21.13	8.92035
21.135	8.6254	21.135	8.31066
21.14	7.58162	21.14	8.4783
21.145	7.42152	21.145	7.98018
21.15	8.96631	21.15	9.27141
21.155	8.4735	21.155	8.58838
21.16	7.71644	21.16	8.4625
21.165	7.52999	21.165	7.98566
21.17	9.05504	21.17	9.29287
21.175	8.54745	21.175	8.62185
21.18	8.16626	21.18	8.11805
21.185	7.49292	21.185	8.1266
21.19	9.03469	21.19	9.41601
21.195	8.53965	21.195	8.73165
21.2	8.1679	21.2	8.21786
21.205	7.88861	21.205	7.83201
21.21	8.71859	21.21	9.83297
21.215	8.313	21.215	9.05903
21.22	8.00835	21.22	8.47807
21.225	7.77941	21.225	8.04185
21.23	8.88569	21.23	9.76654
21.235	8.44595	21.235	9.02681
21.24	9.7811	21.24	10.1369
21.245	9.13115	21.245	9.31817
21.25	8.64327	21.25	8.70363
21.255	7.89	21.255	8.62922
21.26	7.7065	21.26	8.19108
21.265	9.23385	21.265	9.52742
21.27	8.72807	21.27	8.87833
21.275	8.34834	21.275	8.39108
21.28	8.06314	21.28	8.02519
21.285	7.84885	21.285	7.75034
21.29	7.68773	21.29	7.54376
21.295	8.60641	21.295	9.67926
21.3	8.26742	21.3	9.00629
21.305	8.0128	21.305	8.50115
21.31	7.82145	21.31	8.12187
21.315	9.34296	21.315	9.50238
21.32	8.83284	21.32	8.88648
21.325	8.44989	21.325	8.42414
21.33	8.16231	21.33	8.07699
21.335	7.94627	21.335	7.81622
21.34	7.78388	21.34	7.62024
21.345	9.32712	21.345	9.13825
21.35	8.83332	21.35	8.62549
21.355	8.46263	21.355	8.24053
21.36	8.57121	21.36	7.56448
21.365	8.27045	21.365	7.43892
21.37	8.04453	21.37	7.34437
21.375	9.54015	21.375	8.93847
21.38	9.01065	21.38	8.48279
21.385	8.6132	21.385	8.14067
21.39	8.31479	21.39	7.88371
21.395	9.13058	21.395	9.9815
21.4	8.7145	21.4	9.28034
21.405	8.40213	21.405	8.75412
21.41	8.16756	21.41	8.35912
21.415	9.65672	21.415	9.72792
21.42	9.50935	21.42	8.71635
21.425	9.01668	21.425	8.33922
21.43	8.6469	21.43	8.05604
21.435	8.36927	21.435	7.84334
21.44	8.16077	21.44	7.68348
21.445	9.6695	21.445	9.22866
21.45	9.14989	21.45	8.73635
21.455	8.75992	21.455	8.36681
21.46	8.46718	21.46	8.08935
21.465	8.24736	21.465	7.88095
21.47	8.08222	21.47	7.72434
21.475	10.0105	21.475	8.88503
21.48	9.42362	21.48	8.48623
21.485	8.98325	21.485	8.18685
21.49	8.65273	21.49	7.96202
21.495	8.40459	21.495	7.79312
21.5	8.21823	21.5	7.66615
21.505	7.83969	21.505	7.80918
21.51	9.46234	21.51	9.34015
21.515	9.02821	21.515	8.83722
21.52	8.70238	21.52	8.45976
21.525	8.45778	21.525	8.17639
21.53	8.2741	21.53	7.9636
21.535	8.13612	21.535	7.80374
21.54	8.0324	21.54	7.68358
21.545	9.61978	21.545	9.25859
21.55	9.15921	21.55	8.78871
21.555	8.81358	21.555	8.43605
21.56	8.55415	21.56	8.17131
21.565	8.74631	21.565	7.58556
21.57	8.50836	21.57	7.52787
21.575	8.32968	21.575	7.48435
21.58	8.19547	21.58	7.45146
21.585	8.0946	21.585	7.42655
21.59	9.68414	21.59	9.07302
21.595	9.22521	21.595	8.65675
21.6	8.88082	21.6	8.34431
21.605	8.62234	21.605	8.10976
21.61	8.42829	21.61	7.93362
21.615	8.28256	21.615	7.80129
21.62	8.17308	21.62	7.70181
21.625	8.09077	21.625	7.62697
21.63	8.02886	21.63	7.57062
21.635	7.98223	21.635	7.52812
21.64	7.94707	21.64	7.49602
21.645	7.92051	21.645	7.47172
21.65	7.9004	21.65	7.45327
21.655	9.55053	21.655	9.10459
21.66	9.13706	21.66	8.69199
21.665	8.2013	21.665	9.00781
21.67	8.50954	21.67	8.23424
21.675	8.35867	21.675	8.03573
21.68	8.24536	21.68	7.88663
21.685	8.1602	21.685	7.7746
21.69	8.09615	21.69	7.69037
21.695	8.04795	21.695	7.62699
21.7	8.01163	21.7	7.57925
21.705	7.98421	21.705	7.54324
21.71	7.96348	21.71	7.51602
21.715	7.94776	21.715	7.49539
21.72	7.9358	21.72	7.47972
21.725	7.92666	21.725	7.46776
21.73	9.58503	21.73	9.12397
21.735	9.17776	21.735	8.71505
21.74	8.87215	21.74	8.40817
21.745	8.6428	21.745	8.17783
21.75	8.47063	21.75	8.00488
21.755	8.34135	21.755	7.87498
21.76	8.24424	21.76	7.77736
21.765	8.5582	21.765	7.31702
21.77	8.41166	21.77	7.35344
21.775	8.30159	21.775	7.38056
21.78	8.21889	21.78	7.40071
21.785	8.15672	21.785	7.41564
21.79	8.10993	21.79	7.42665
21.795	8.07469	21.795	7.43471
21.8	9.71351	21.8	9.10597
21.805	8.90464	21.805	9.0953
21.81	8.67973	21.81	8.70526
21.815	8.51091	21.815	8.41256
21.82	8.38416	21.82	8.19287
21.825	8.28897	21.825	8.02793
21.83	8.21744	21.83	7.90405
21.835	8.16366	21.835	7.81098
21.84	8.1232	21.84	7.741
21.845	8.09271	21.845	7.68835
21.85	8.06972	21.85	7.64869
21.855	8.43928	21.855	7.23183
21.86	8.33446	21.86	7.30089
21.865	8.25571	21.865	7.3525
21.87	8.19651	21.87	7.39105
21.875	8.15198	21.875	7.41979
21.88	7.73151	21.88	7.82812
21.885	7.79788	21.885	7.75233
21.89	7.84753	21.89	7.69532
21.895	7.88463	21.895	7.6524
21.9	7.91232	21.9	7.62003
21.905	9.59836	21.905	9.26099
21.91	9.21188	21.91	8.84066
21.915	8.9219	21.915	8.52526
21.92	8.70431	21.92	8.28857
21.925	8.541	21.925	8.11089
21.93	8.4184	21.93	7.97749
21.935	8.32634	21.935	7.87728
21.94	8.25718	21.94	7.80198
21.945	8.2052	21.945	7.74535
21.95	8.1661	21.95	7.70273
21.955	8.13666	21.955	7.67061
21.96	8.11446	21.96	7.64638
21.965	8.0977	21.965	7.62805
21.97	8.08502	21.97	7.61415
21.975	7.68845	21.975	7.99053
21.98	8.15971	21.98	7.50384
21.985	8.13119	21.985	7.52055
21.99	7.72273	21.99	7.91987
21.995	8.18509	21.995	7.4504
22	7.76293	22	7.86696
22.005	8.215	22.005	7.41042
22.01	8.17208	22.01	7.44973
22.015	8.13978	22.015	7.47906
22.02	8.11544	22.02	7.50091
22.025	8.09707	22.025	7.51714
22.03	8.08318	22.03	7.52917
22.035	8.07264	22.035	7.53804
22.04	8.06463	22.04	7.54454
22.045	8.05851	22.045	7.54927
22.05	8.0538	22.05	7.55266
22.055	8.05016	22.055	7.55506
22.06	7.66036	22.06	7.94365
22.065	7.74977	22.065	7.85308
22.07	7.81671	22.07	7.785
22.075	7.8668	22.075	7.73379
22.08	7.90426	22.08	7.69523
22.085	7.93223	22.085	7.66616
22.09	7.9531	22.09	7.64421
22.095	9.63404	22.095	9.293
22.1	9.24375	22.1	8.87856
22.105	8.95094	22.105	8.5676
22.11	8.73124	22.11	8.33425
22.115	8.56637	22.115	8.15911
22.12	8.44262	22.12	8.02762
22.125	8.34972	22.125	7.92887
22.13	8.27994	22.13	7.85468
22.135	8.22752	22.135	7.7989
22.14	8.1881	22.14	7.75694
22.145	7.7715	22.145	8.11228
22.15	7.84082	22.15	7.99679
22.155	7.89271	22.155	7.91005
22.16	7.93154	22.16	7.84485
22.165	7.57362	22.165	8.18278
22.17	7.68695	22.17	8.05422
22.175	7.77185	22.175	7.95767
22.18	7.83543	22.18	7.88513
22.185	7.88303	22.185	7.83059
22.19	7.91863	22.19	7.78956
22.195	8.33218	22.195	7.37171
22.2	7.87343	22.2	7.827
22.205	8.29809	22.205	7.39952
22.21	7.84768	22.21	7.8476
22.215	7.89164	22.215	7.80165
22.22	7.92452	22.22	7.76707
22.225	7.94908	22.225	7.741
22.23	7.96741	22.23	7.72131
22.235	7.98106	22.235	7.70642
22.24	7.9912	22.24	7.69512
22.245	7.99872	22.245	7.68651
22.25	8.00426	22.25	7.67992
22.255	7.62137	22.255	8.0618
22.26	7.71598	22.26	7.96621
22.265	8.17378	22.265	7.50744
22.27	8.37371	22.27	7.30656
22.275	8.04362	22.275	7.63571
22.28	8.03737	22.28	7.64104
22.285	8.03258	22.285	7.6449
22.29	8.0289	22.29	7.64766
22.295	8.65152	22.295	7.02413
22.3	8.49513	22.3	7.17961
22.305	7.75225	22.305	7.92158
22.31	8.44376	22.31	7.22917
22.315	8.33902	22.315	7.333
22.32	8.26037	22.32	7.41074
22.325	8.20129	22.325	7.46892
22.33	7.76994	22.33	7.89936
22.335	7.8282	22.335	7.8402
22.34	7.8718	22.34	7.79569
22.345	7.9044	22.345	7.76218
22.35	7.92877	22.35	7.73692
22.355	7.94694	22.355	7.71784
22.36	7.96048	22.36	7.70339
22.365	7.97054	22.365	7.69243
22.37	9.64339	22.37	9.34947
22.375	9.24706	22.375	8.94125
22.38	8.94974	22.38	8.63496
22.385	8.72667	22.385	8.40514
22.39	8.5593	22.39	8.23266
22.395	8.43369	22.395	8.10319
22.4	8.33941	22.4	8.00597
22.405	8.26863	22.405	7.93294
22.41	8.21547	22.41	7.87806
22.415	8.17552	22.415	7.83678
22.42	8.14549	22.42	7.80571
22.425	8.12288	22.425	7.7823
22.43	7.71891	22.43	8.15157
22.435	7.79773	22.435	8.04655
22.44	7.85676	22.44	7.96767
22.445	8.52644	22.445	7.28291
22.45	7.77988	22.45	8.01799
22.455	8.46863	22.455	7.32043
22.46	8.36185	22.46	7.42041
22.465	8.28169	22.465	7.49529
22.47	8.2215	22.47	7.55134
22.475	7.5508	22.475	8.21874
22.48	8.29646	22.48	7.47042
22.485	8.23235	22.485	7.53234
22.49	8.1842	22.49	7.57867
22.495	8.14801	22.495	7.6133
22.5	8.12079	22.5	7.63916
22.505	8.10031	22.505	7.65844
22.51	7.69793	22.51	8.05973
22.515	7.77793	22.515	7.97872
22.52	7.83786	22.52	7.91785
22.525	7.49579	22.525	8.25903
22.53	8.00797	22.53	7.74599
22.535	8.01017	22.535	7.74296
22.54	7.6248	22.54	8.12752
22.545	7.71756	22.545	8.03397
22.55	8.17401	22.55	7.57674
22.555	8.1344	22.555	7.61557
22.56	8.10462	22.56	7.64457
22.565	8.08222	22.565	7.66622
22.57	8.06534	22.57	7.68233
22.575	8.05261	22.575	7.69431
22.58	7.65604	22.58	8.09012
22.585	7.7404	22.585	8.005
22.59	7.8036	22.59	7.94105
22.595	7.85093	22.595	7.89297
22.6	7.88635	22.6	7.8568
22.605	7.91284	22.605	7.82955
22.61	8.55812	22.61	7.18353
22.615	7.4063	22.615	8.33459
22.62	8.17298	22.62	7.56716
22.625	8.12465	22.625	7.61474
22.63	8.47528	22.63	7.26337
22.635	8.35631	22.635	7.38159
22.64	8.26701	22.64	7.47013
22.645	8.19996	22.645	7.53643
22.65	7.76265	22.65	7.97299
22.655	7.81647	22.655	7.91842
22.66	7.85676	22.66	7.87739
22.665	7.8869	22.665	7.84649
22.67	7.90943	22.67	7.82321
22.675	7.92626	22.675	7.80563
22.68	7.93881	22.68	7.79233
22.685	7.94815	22.685	7.78224
22.69	7.95508	22.69	7.77456
22.695	7.57326	22.695	8.15563
22.7	7.66869	22.7	8.05945
22.705	8.12713	22.705	7.60026
22.71	9.75442	22.71	9.30301
22.715	8.937	22.715	9.31603
22.72	8.70574	22.72	8.94384
22.725	8.53225	22.725	8.6646
22.73	8.40207	22.73	8.45507
22.735	8.30439	22.735	8.29783
22.74	8.23107	22.74	8.1798
22.745	8.17603	22.745	8.09119
22.75	8.1347	22.75	8.02463
22.755	8.10364	22.755	7.97462
22.76	8.0803	22.76	7.93701
22.765	8.06274	22.765	7.90871
22.77	8.04951	22.77	7.88739
22.775	8.03954	22.775	7.8713
22.78	8.65749	22.78	7.23366
22.785	8.11068	22.785	7.76555
22.79	8.46933	22.79	7.39556
22.795	7.96945	22.795	7.88679
22.8	8.3633	22.8	7.4863
22.805	7.88983	22.805	7.95464
22.81	7.91654	22.81	7.92394
22.815	8.32346	22.815	7.51387
22.82	8.24673	22.82	7.58809
22.825	8.18914	22.825	7.64365
22.83	8.14589	22.83	7.68523
22.835	8.1134	22.835	7.71632
22.84	8.08898	22.84	7.73954
22.845	7.68367	22.845	8.1438
22.85	7.76149	22.85	8.06504
22.855	7.81981	22.855	8.00587
22.86	7.8635	22.86	7.96139
22.865	7.89621	22.865	7.92794
22.87	7.92069	22.87	7.90276
22.875	7.939	22.875	7.88377
22.88	7.95268	22.88	7.86943
22.885	7.57594	22.885	8.24553
22.89	7.6752	22.89	8.14564
22.895	8.13653	22.895	7.68368
22.9	8.10062	22.9	7.71898
22.905	8.07363	22.905	7.74536
22.91	8.05334	22.91	7.76505
22.915	8.03806	22.915	7.77972
22.92	8.02656	22.92	7.79062
22.925	8.01787	22.925	7.7987
22.93	8.01131	22.93	7.80467
22.935	8.00633	22.935	7.80904
22.94	8.00255	22.94	7.81223
22.945	7.99966	22.945	7.81452
22.95	7.99744	22.95	7.81615
22.955	7.99572	22.955	7.81727
22.96	7.60743	22.96	8.20496
22.965	7.69803	22.965	8.11376
22.97	7.76592	22.97	8.04527
22.975	7.81679	22.975	7.99381
22.98	7.85489	22.98	7.95511
22.985	7.88341	22.985	7.92599
22.99	7.90475	22.99	7.90406
22.995	8.54618	22.995	7.26203
23	7.77845	23	8.02916
23.005	7.82587	23.005	7.98114
23.01	8.48687	23.01	7.31955
23.015	7.73381	23.015	8.07201
23.02	8.41772	23.02	7.38751
23.025	8.06879	23.025	7.73584
23.03	8.67393	23.03	7.1301
23.035	8.11751	23.035	7.68592
23.04	7.84348	23.04	7.95936
23.045	8.11784	23.045	7.6844
23.05	8.08216	23.05	7.71949
23.055	8.44229	23.055	7.35876
23.06	7.94352	23.06	7.85693
23.065	7.95126	23.065	7.84859
23.07	7.95702	23.07	7.84224
23.075	7.96128	23.075	7.83738
23.08	7.96443	23.08	7.83364
23.085	8.35368	23.085	7.44379
23.09	8.2637	23.09	7.53317
23.095	8.19617	23.095	7.60011
23.1	8.14547	23.1	7.65021
23.105	8.10739	23.105	7.68769
23.11	8.07878	23.11	7.71571
23.115	8.05727	23.115	7.73662
23.12	8.04109	23.12	7.75221
23.125	8.0289	23.125	7.7638
23.13	8.01971	23.13	7.7724
23.135	8.01276	23.135	7.77875
23.14	8.0075	23.14	7.78341
23.145	8.0035	23.145	7.78681
23.15	8.00045	23.15	7.78926
23.155	7.99811	23.155	7.79101
23.16	7.99631	23.16	7.79222
23.165	7.9949	23.165	7.79303
23.17	7.99379	23.17	7.79353
23.175	7.99291	23.175	7.79382
23.18	7.9922	23.18	7.79394
23.185	7.99162	23.185	7.79392
23.19	7.99112	23.19	7.79382
23.195	7.99071	23.195	7.79364
23.2	7.99034	23.2	7.79341
23.205	8.37696	23.205	7.40619
23.21	8.28501	23.21	7.49755
23.215	8.21599	23.215	7.56597
23.22	8.16418	23.22	7.61719
23.225	8.12527	23.225	7.6555
23.23	8.09603	23.23	7.68414
23.235	8.07405	23.235	7.70552
23.24	8.05752	23.24	7.72146
23.245	8.04507	23.245	7.73331
23.25	8.03568	23.25	7.74211
23.255	7.64163	23.255	8.13555
23.26	7.72792	23.26	8.04868
23.265	7.79258	23.265	7.98342
23.27	7.84102	23.27	7.93438
23.275	8.26425	23.275	7.51055
23.28	8.19975	23.28	7.57445
23.285	8.15133	23.285	7.62228
23.29	8.11496	23.29	7.65805
23.295	8.08763	23.295	7.68478
23.3	8.06708	23.3	7.70474
23.305	8.05162	23.305	7.7196
23.31	8.03997	23.31	7.73065
23.315	8.03119	23.315	7.73884
23.32	8.02454	23.32	7.74489
23.325	8.01951	23.325	7.74933
23.33	8.01568	23.33	7.75256
23.335	8.01276	23.335	7.75488
23.34	8.01052	23.34	7.75653
23.345	8.00878	23.345	7.75767
23.35	8.00743	23.35	7.75842
23.355	8.00637	23.355	7.75889
23.36	8.00552	23.36	7.75914
23.365	8.00483	23.365	7.75924
23.37	8.00426	23.37	7.75921
23.375	8.00378	23.375	7.75909
23.38	8.00337	23.38	7.7589
23.385	8.38996	23.385	7.37172
23.39	8.29798	23.39	7.4631
23.395	8.22895	23.395	7.53154
23.4	8.17712	23.4	7.58277
23.405	8.1382	23.405	7.62109
23.41	8.10896	23.41	7.64974
23.415	8.08697	23.415	7.67113
23.42	8.07043	23.42	7.68707
23.425	8.05798	23.425	7.69893
23.43	8.04858	23.43	7.70773
23.435	8.04149	23.435	7.71423
23.44	8.03611	23.44	7.719
23.445	8.03203	23.445	7.72249
23.45	8.02892	23.45	7.72501
23.455	8.02653	23.455	7.7268
23.46	8.02469	23.46	7.72804
23.465	8.02326	23.465	7.72888
23.47	8.02213	23.47	7.72941
23.475	8.02124	23.475	7.72971
23.48	8.02051	23.48	7.72983
23.485	8.40686	23.485	7.34288
23.49	8.31471	23.49	7.43444
23.495	8.24555	23.495	7.50301
23.5	8.19362	23.5	7.55434
23.505	8.15462	23.505	7.59274
23.51	8.12532	23.51	7.62144
23.515	8.1033	23.515	7.64287
23.52	8.08673	23.52	7.65884
23.525	8.07425	23.525	7.67073
23.53	8.06484	23.53	7.67954
23.535	8.05773	23.535	7.68605
23.54	8.05234	23.54	7.69084
23.545	8.04825	23.545	7.69433
23.55	8.04514	23.55	7.69686
23.555	8.04274	23.555	7.69865
23.56	8.0409	23.56	7.6999
23.565	8.03947	23.565	7.70074
23.57	8.03834	23.57	7.70127
23.575	8.03744	23.575	7.70157
23.58	8.03672	23.58	7.7017
23.585	8.03612	23.585	7.7017
23.59	8.03562	23.59	7.7016
23.595	8.0352	23.595	7.70143
23.6	8.03483	23.6	7.7012
23.605	8.0345	23.605	7.70093
23.61	8.0342	23.61	7.70063
23.615	8.03392	23.615	7.70031
23.62	8.03367	23.62	7.69997
23.625	8.03342	23.625	7.69962
23.63	8.03319	23.63	7.69926
23.635	8.03296	23.635	7.69889
23.64	8.03273	23.64	7.69852
23.645	8.03252	23.645	7.69814
23.65	7.64535	23.65	8.08471
23.655	8.12374	23.655	7.60572
23.66	8.10062	23.66	7.62825
23.665	8.08322	23.665	7.64505
23.67	8.07012	23.67	7.65755
23.675	8.06025	23.675	7.66683
23.68	8.05279	23.68	7.67369
23.685	8.04715	23.685	7.67874
23.69	8.04286	23.69	7.68243
23.695	8.03959	23.695	7.6851
23.7	8.03709	23.7	7.687
23.705	7.64822	23.705	8.07528
23.71	7.73838	23.71	7.98452
23.715	7.80595	23.715	7.91636
23.72	7.85657	23.72	7.86514
23.725	7.89449	23.725	7.82663
23.73	7.92287	23.73	7.79764
23.735	7.94411	23.735	7.77581
23.74	7.95999	23.74	7.75934
23.745	7.97184	23.745	7.74688
23.75	7.98068	23.75	7.73745
23.755	7.98726	23.755	7.73027
23.76	7.99214	23.76	7.72479
23.765	9.66115	23.765	9.38598
23.77	9.26198	23.77	8.9809
23.775	8.96257	23.775	8.67702
23.78	8.73798	23.78	8.44902
23.785	8.56951	23.785	8.27795
23.79	8.44312	23.79	8.14956
23.795	8.34829	23.795	8.0532
23.8	8.27714	23.8	7.98084
23.805	8.22375	23.805	7.9265
23.81	8.18367	23.81	7.88567
23.815	8.15358	23.815	7.85496
23.82	8.13098	23.82	7.83185
23.825	8.114	23.825	7.81444
23.83	8.10123	23.83	7.80131
23.835	8.09162	23.835	7.79138
23.84	8.08438	23.84	7.78385
23.845	8.07891	23.845	7.77813
23.85	8.07479	23.85	7.77376
23.855	8.07166	23.855	7.7704
23.86	8.06928	23.86	7.76781
23.865	8.06746	23.865	7.76578
23.87	8.06607	23.87	7.76419
23.875	8.06499	23.875	7.76291
23.88	8.06415	23.88	7.76187
23.885	8.06348	23.885	7.76102
23.89	7.43747	23.89	8.38578
23.895	8.21668	23.895	7.60552
23.9	7.55231	23.9	8.269
23.905	8.30274	23.905	7.51778
23.91	8.24227	23.91	7.57756
23.915	7.5714	23.915	8.24779
23.92	8.31696	23.92	7.50164
23.925	8.25283	23.925	7.56522
23.93	7.57922	23.93	8.23831
23.935	8.32274	23.935	7.49429
23.94	8.25706	23.94	7.55947
23.945	7.5823	23.945	8.23376
23.95	8.32494	23.95	7.49065
23.955	8.25862	23.955	7.55651
23.96	7.58337	23.96	8.2313
23.965	8.32565	23.965	7.48857
23.97	7.63357	23.97	8.18019
23.975	8.36324	23.975	7.45008
23.98	7.6617	23.98	8.15117
23.985	7.75878	23.985	8.05364
23.99	7.83156	23.99	7.98041
23.995	7.88612	23.995	7.92542
24	7.927	24	7.88409
24.005	7.95762	24.005	7.85302
24.01	7.98056	24.01	7.82964
24.015	7.99773	24.015	7.81203
24.02	8.01057	24.02	7.79874
24.025	8.02017	24.025	7.78869
24.03	8.02734	24.03	7.78109
24.035	8.03268	24.035	7.7753
24.04	8.03665	24.04	7.77088
24.045	8.0396	24.045	7.7675
24.05	8.04178	24.05	7.76488
24.055	8.04337	24.055	7.76283
24.06	8.43149	24.06	7.37428
24.065	8.34067	24.065	7.46465
24.07	7.88558	24.07	7.9193
24.075	8.31304	24.075	7.49139
24.08	8.25174	24.08	7.55225
24.085	8.20573	24.085	7.59782
24.09	7.78424	24.09	8.01887
24.095	8.2369	24.095	7.56576
24.1	8.1945	24.1	7.60772
24.105	8.16267	24.105	7.63911
24.11	8.13876	24.11	7.66258
24.115	8.12079	24.115	7.6801
24.12	8.10728	24.12	7.69316
24.125	8.09712	24.125	7.70288
24.13	8.08946	24.13	7.7101
24.135	8.08369	24.135	7.71543
24.14	8.07932	24.14	7.71935
24.145	8.07602	24.145	7.72221
24.15	8.0735	24.15	7.72428
24.155	8.07158	24.155	7.72576
24.16	8.07011	24.16	7.72679
24.165	8.06898	24.165	7.72748
24.17	8.06809	24.17	7.72793
24.175	8.06739	24.175	7.72818
24.18	8.06683	24.18	7.7283
24.185	8.06638	24.185	7.7283
24.19	8.06601	24.19	7.72823
24.195	8.0657	24.195	7.7281
24.2	8.06543	24.2	7.72793
24.205	8.0652	24.205	7.72772
24.21	8.06499	24.21	7.72748
24.215	8.0648	24.215	7.72723
24.22	8.06462	24.22	7.72696
24.225	8.06446	24.225	7.72668
24.23	8.0643	24.23	7.7264
24.235	8.06415	24.235	7.72611
24.24	8.064	24.24	7.72581
24.245	8.06386	24.245	7.72551
24.25	8.06372	24.25	7.72521
24.255	8.06358	24.255	7.7249
24.26	8.06344	24.26	7.7246
24.265	8.0633	24.265	7.72429
24.27	8.06317	24.27	7.72398
24.275	8.06303	24.275	7.72368
24.28	8.0629	24.28	7.72337
24.285	8.06276	24.285	7.72306
24.29	8.06263	24.29	7.72275
24.295	8.0625	24.295	7.72244
24.3	7.43688	24.3	8.34761
24.305	8.21639	24.305	7.56766
24.31	8.17772	24.31	7.60589
24.315	8.14868	24.315	7.63449
24.32	8.12686	24.32	7.65586
24.325	7.48499	24.325	8.29729
24.33	7.62682	24.33	8.15501
24.335	8.35864	24.335	7.42275
24.34	8.2842	24.34	7.49675
24.345	7.60286	24.345	8.17765
24.35	7.71509	24.35	8.06497
24.355	7.79923	24.355	7.98039
24.36	7.8623	24.36	7.91688
24.365	7.90957	24.365	7.86917
24.37	7.94498	24.37	7.83331
24.375	7.97151	24.375	7.80634
24.38	7.99137	24.38	7.78603
24.385	8.00623	24.385	7.77073
24.39	8.01735	24.39	7.75917
24.395	8.02565	24.395	7.75043
24.4	8.03184	24.4	7.74379
24.405	8.03645	24.405	7.73874
24.41	8.03987	24.41	7.73488
24.415	8.0424	24.415	7.7319
24.42	8.04426	24.42	7.72959
24.425	8.04563	24.425	7.72779
24.43	8.04662	24.43	7.72635
24.435	8.04733	24.435	7.7252
24.44	8.04782	24.44	7.72426
24.445	8.04816	24.445	7.72348
24.45	8.04838	24.45	7.72282
24.455	8.04851	24.455	7.72225
24.46	8.04857	24.46	7.72174
24.465	8.04859	24.465	7.72128
24.47	8.04856	24.47	7.72087
24.475	8.04851	24.475	7.72048
24.48	8.04843	24.48	7.72011
24.485	8.04834	24.485	7.71975
24.49	8.04824	24.49	7.71941
24.495	8.04813	24.495	7.71908
24.5	8.43496	24.5	7.33181
24.505	8.34318	24.505	7.42314
24.51	8.27432	24.51	7.49156
24.515	8.22263	24.515	7.54281
24.52	8.18383	24.52	7.58116
24.525	8.1547	24.525	7.60985
24.53	8.13282	24.53	7.63129
24.535	8.11637	24.535	7.64729
24.54	8.104	24.54	7.65922
24.545	8.09469	24.545	7.66809
24.55	8.08767	24.55	7.67466
24.555	8.08237	24.555	7.67952
24.56	8.07837	24.56	7.68308
24.565	8.07533	24.565	7.68568
24.57	8.07301	24.57	7.68755
24.575	8.07124	24.575	7.68888
24.58	8.06988	24.58	7.6898
24.585	8.06882	24.585	7.69041
24.59	8.068	24.59	7.69079
24.595	8.06734	24.595	7.691
24.6	8.06682	24.6	7.69109
24.605	8.06639	24.605	7.69107
24.61	8.06604	24.61	7.69098
24.615	8.06574	24.615	7.69084
24.62	8.06548	24.62	7.69066
24.625	8.06525	24.625	7.69044
24.63	8.06504	24.63	7.69021
24.635	8.06485	24.635	7.68995
24.64	8.06468	24.64	7.68968
24.645	8.06451	24.645	7.68941
24.65	8.06435	24.65	7.68912
24.655	8.0642	24.655	7.68883
24.66	8.06405	24.66	7.68854
24.665	8.0639	24.665	7.68824
24.67	8.06376	24.67	7.68794
24.675	8.06361	24.675	7.68764
24.68	8.06347	24.68	7.68734
24.685	8.06333	24.685	7.68704
24.69	8.06319	24.69	7.68673
24.695	8.06305	24.695	7.68643
24.7	8.06292	24.7	7.68613
24.705	8.06278	24.705	7.68582
24.71	8.06264	24.71	7.68551
24.715	8.0625	24.715	7.68521
24.72	8.06237	24.72	7.6849
24.725	8.06223	24.725	7.6846
24.73	8.06209	24.73	7.68429
24.735	8.06195	24.735	7.68399
24.74	8.06182	24.74	7.68368
24.745	8.06168	24.745	7.68338
24.75	8.06154	24.75	7.68307
24.755	8.0614	24.755	7.68276
24.76	8.06127	24.76	7.68246
24.765	8.06113	24.765	7.68215
24.77	8.06099	24.77	7.68185
24.775	8.06085	24.775	7.68154
24.78	8.06072	24.78	7.68123
24.785	8.06058	24.785	7.68093
24.79	8.06044	24.79	7.68062
24.795	8.06031	24.795	7.68032
24.8	8.06017	24.8	7.68001
24.805	8.06003	24.805	7.6797
24.81	8.05989	24.81	7.6794
24.815	8.05976	24.815	7.67909
24.82	8.05962	24.82	7.67879
24.825	8.05948	24.825	7.67848
24.83	7.6724	24.83	8.06512
24.835	8.15086	24.835	7.58621
24.84	7.74087	24.84	7.99577
24.845	7.8152	24.845	7.92099
24.85	7.87091	24.85	7.86483
24.855	7.91267	24.855	7.82264
24.86	7.94395	24.86	7.79091
24.865	7.96737	24.865	7.76705
24.87	7.98491	24.87	7.74907
24.875	7.99802	24.875	7.73551
24.88	8.00783	24.88	7.72526
24.885	8.01514	24.885	7.7175
24.89	8.0206	24.89	7.7116
24.895	8.02466	24.895	7.7071
24.9	7.40218	24.9	8.32913
24.905	8.18405	24.905	7.54683
24.91	7.52166	24.91	8.20877
24.915	8.27358	24.915	7.4564
24.92	8.21422	24.92	7.51532
24.925	7.54418	24.925	8.18492
24.93	8.29037	24.93	7.43828
24.935	8.22671	24.935	7.50151
24.94	7.55345	24.94	8.17433
24.945	8.29722	24.945	7.43011
24.95	8.23174	24.95	7.49515
24.955	8.18259	24.955	7.54385
24.96	8.1457	24.96	7.5803
24.965	8.118	24.965	7.60756
24.97	8.09719	24.97	7.62792
24.975	8.08154	24.975	7.64312
24.98	8.06978	24.98	7.65445
24.985	8.06092	24.985	7.66286
24.99	8.05424	24.99	7.6691
24.995	8.0492	24.995	7.6737
25	21.1947	25	20.8264
25.005	21.2092	25.005	20.8463
25.01	21.2245	25.01	20.8655
25.015	21.2403	25.015	20.8842
25.02	21.2564	25.02	20.9025
25.025	21.2729	25.025	20.9205
25.03	21.2895	25.03	20.9383
25.035	21.3063	25.035	20.956
25.04	21.3233	25.04	20.9735
25.045	21.3403	25.045	20.9909
25.05	21.3574	25.05	21.0083
25.055	21.3746	25.055	21.0256
25.06	21.3918	25.06	21.0428
25.065	21.409	25.065	21.0601
25.07	21.4263	25.07	21.0773
25.075	21.4435	25.075	21.0945
25.08	21.4608	25.08	21.1117
25.085	21.4781	25.085	21.1288
25.09	21.4954	25.09	21.146
25.095	21.5127	25.095	21.1632
25.1	21.53	25.1	21.1803
25.105	21.5473	25.105	21.1975
25.11	21.5646	25.11	21.2146
25.115	22.2074	25.115	20.6063
25.12	20.4052	25.12	19.1122
25.125	20.7087	25.125	19.6468
25.13	20.9406	25.13	20.052
25.135	21.1189	25.135	20.3602
25.14	21.2569	25.14	20.5956
25.145	19.6994	25.145	19.111
25.15	20.1864	25.15	19.6527
25.155	21.1814	25.155	19.4378
25.16	19.6433	25.16	18.2387
25.165	20.5318	25.165	18.6076
25.17	19.7807	25.17	16.9794
25.175	19.6238	25.175	18.6622
25.18	18.4682	25.18	17.6397
25.185	18.2167	25.185	16.2372
25.19	18.8214	25.19	17.7021
25.195	17.4407	25.195	13.9818
25.2	17.8392	25.2	16.3695
25.205	18.7654	25.205	17.5411
25.21	15.895	25.21	15.3317
25.215	17.1136	25.215	13.5843
25.22	17.3306	25.22	16.2806
25.225	16.2823	25.225	12.8605
25.23	15.6515	25.23	13.4209
25.235	15.4093	25.235	13.5893
25.24	15.6042	25.24	13.3182
25.245	15.5966	25.245	13.2476
25.25	16.7658	25.25	15.3295
25.255	13.5174	25.255	11.0318
25.26	14.136	25.26	11.336
25.265	14.2076	25.265	11.9354
25.27	13.2107	25.27	10.0834
25.275	15.1454	25.275	12.6233
25.28	15.3219	25.28	12.4798
25.285	10.4525	25.285	7.36008
25.29	11.9861	25.29	8.21862
25.295	11.8767	25.295	10.1005
25.3	8.03648	25.3	5.2561
25.305	9.86183	25.305	6.80093
25.31	10.8381	25.31	8.33051
25.315	8.22867	25.315	6.13596
25.32	9.94937	25.32	7.3939
25.325	9.42022	25.325	6.80428
25.33	6.85252	25.33	5.15106
25.335	9.08438	25.335	6.33493
25.34	9.49844	25.34	8.46047
25.345	7.47733	25.345	5.70246
25.35	8.87027	25.35	7.30641
25.355	10.5293	25.355	7.87266
25.36	3.19906	25.36	0.195456
25.365	6.60261	25.365	5.3534
25.37	-1.6375	25.37	-3.29457
25.375	1.83494	25.375	0.354722
25.38	4.42782	25.38	3.08018
25.385	1.36481	25.385	0.11656
25.39	4.00869	25.39	2.83492
25.395	4.31464	25.395	3.19666
25.4	3.89251	25.4	4.06729
25.405	4.55998	25.405	3.68383
25.41	6.31793	25.41	5.41726
25.415	5.95929	25.415	5.04018
25.42	5.66407	25.42	4.73107
25.425	7.08177	25.425	6.13829
25.43	6.46785	25.43	5.51646
25.435	7.64646	25.435	6.68909
25.44	8.51857	25.44	7.55664
25.445	3.5391	25.445	3.82467
25.45	5.3685	25.45	5.3431
25.455	6.34164	25.455	6.85684
25.46	2.83211	25.46	2.21509
25.465	4.37177	25.465	4.44316
25.47	5.8963	25.47	5.7202
25.475	5.74914	25.475	4.61348
25.48	6.89565	25.48	5.80399
25.485	7.74337	25.485	6.68467
25.49	3.13225	25.49	2.57528
25.495	4.85574	25.495	4.1922
25.5	1.13989	25.5	0.396366
25.505	2.90637	25.505	2.87671
25.51	4.98768	25.51	3.95573
25.515	4.489	25.515	3.46902
25.52	5.75345	25.52	4.74239
25.525	6.06385	25.525	6.3104
25.53	5.62901	25.53	4.79827
25.535	6.55939	25.535	5.68436
25.54	7.24465	25.54	6.33636
25.545	4.17672	25.545	3.7205
25.55	5.40635	25.55	4.80632
25.555	1.70671	25.555	0.224884
25.56	3.49009	25.56	2.1106
25.565	6.4803	25.565	5.17751
25.57	5.007	25.57	4.53558
25.575	6.30896	25.575	4.9234
25.58	6.26531	25.58	6.20879
25.585	6.84305	25.585	6.53671
25.59	7.65048	25.59	6.38284
25.595	7.86135	25.595	6.63642
25.6	4.82426	25.6	3.3345
25.605	5.69486	25.605	4.28734
25.61	8.38721	25.61	6.26744
25.615	6.69539	25.615	4.80511
25.62	7.06444	25.62	5.34624
25.625	7.32824	25.625	5.73905
25.63	5.84768	25.63	4.35521
25.635	8.0405	25.635	6.62052
25.64	8.02117	25.64	6.65551
25.645	8.14202	25.645	6.52024
25.65	8.07911	25.65	6.5461
25.655	9.68421	25.655	8.21775
25.66	6.66714	25.66	3.70276
25.665	8.59462	25.665	6.03422
25.67	8.37617	25.67	6.11871
25.675	9.86454	25.675	7.83425
25.68	9.31675	25.68	7.45678
25.685	9.27964	25.685	6.77349
25.69	10.5221	25.69	8.29502
25.695	9.78986	25.695	7.772
25.7	10.8928	25.7	9.03185
25.705	9.81738	25.705	8.5511
25.71	8.85199	25.71	8.32277
25.715	10.5489	25.715	9.03478
25.72	10.1624	25.72	7.8995
25.725	9.8644	25.725	7.02961
25.73	10.9111	25.73	8.4111
25.735	10.0319	25.735	7.78296
25.74	11.0245	25.74	8.96387
25.745	10.1048	25.745	8.18528
25.75	11.067	25.75	9.25334
25.755	10.1244	25.755	8.39009
25.76	10.6826	25.76	9.78158
25.765	10.2057	25.765	8.39207
25.77	11.1182	25.77	9.38376
25.775	11.8037	25.775	10.1286
25.78	10.6535	25.78	9.0229
25.785	11.4429	25.785	9.84556
25.79	10.3706	25.79	8.79821
25.795	11.8438	25.795	9.03914
25.8	11.048	25.8	7.79179
25.805	11.7213	25.805	8.89004
25.81	10.175	25.81	8.43629
25.815	11.049	25.815	9.366
25.82	10.0402	25.82	8.39886
25.825	10.9354	25.825	9.32538
25.83	11.6079	25.83	10.0212
25.835	10.0609	25.835	9.26565
25.84	8.88209	25.84	8.69048
25.845	10.0317	25.845	9.52907
25.85	10.8949	25.85	10.1589
25.855	10.5033	25.855	8.3414
25.86	11.2382	25.86	9.25332
25.865	11.7904	25.865	9.93817
25.87	10.1531	25.87	9.17427
25.875	8.90647	25.875	8.59281
25.88	10.0052	25.88	9.42662
25.885	8.7778	25.885	8.7744
25.89	9.50396	25.89	9.94206
25.895	11.0568	25.895	9.81131
25.9	9.54676	25.9	9.05893
25.905	10.0609	25.905	10.1514
25.91	8.77691	25.91	9.31136
25.915	9.84754	25.915	9.95113
25.92	10.2644	25.92	10.8187
25.925	9.29441	25.925	9.42296
25.93	9.83169	25.93	10.4148
25.935	9.57744	25.935	8.4867
25.94	7.97591	25.94	8.42407
25.945	8.80324	25.945	9.65197
25.95	9.8064	25.95	10.1918
25.955	8.35883	25.955	9.46736
25.96	9.44715	25.96	10.0533
25.965	9.87722	25.965	10.8805
25.97	8.53009	25.97	9.84132
25.975	7.88787	25.975	8.66627
25.98	8.67089	25.98	9.82352
25.985	7.58843	25.985	9.03183
25.99	8.81007	25.99	9.70778
25.995	9.57862	25.995	10.3638
26	8.63082	26	9.05069
26.005	9.18463	26.005	10.1043
26.01	7.93021	26.01	9.2349
26.015	8.6359	26.015	10.2394
26.02	9.54773	26.02	10.6116
26.025	8.41848	26.025	9.37442
26.03	9.36356	26.03	9.95756
26.035	10.0731	26.035	10.3955
26.04	8.55349	26.04	9.44619
26.045	9.06029	26.045	10.3908
26.05	8.15751	26.05	9.05252
26.055	9.37049	26.055	9.46178
26.06	8.37405	26.06	8.34531
26.065	8.50434	26.065	9.93331
26.07	7.701	26.07	8.69574
26.075	8.74999	26.075	9.419
26.08	9.77587	26.08	9.72345
26.085	8.63906	26.085	8.52833
26.09	9.43793	26.09	9.28341
26.095	10.0377	26.095	9.85025
26.1	10.488	26.1	10.2759
26.105	9.161	26.105	8.93025
26.11	9.43023	26.11	9.95936
26.115	10.0146	26.115	10.3498
26.12	10.4534	26.12	10.6432
26.125	9.74316	26.125	8.57282
26.13	10.2386	26.13	9.29469
26.135	10.2238	26.135	10.2235
26.14	8.92975	26.14	8.87337
26.145	9.6106	26.145	9.51211
26.15	10.1218	26.15	9.99163
26.155	8.84025	26.155	8.68634
26.16	9.53052	26.16	9.3587
26.165	10.6742	26.165	9.23794
26.17	10.9092	26.17	9.77108
26.175	11.0859	26.175	10.1714
26.18	9.55361	26.18	8.80665
26.185	10.0557	26.185	9.43441
26.19	10.4328	26.19	9.90566
26.195	10.7161	26.195	10.2595
26.2	10.9291	26.2	10.5253
26.205	9.42388	26.205	9.05973
26.21	10.5718	26.21	8.98634
26.215	10.81	26.215	9.55497
26.22	10.9891	26.22	9.98185
26.225	11.1238	26.225	10.3024
26.23	9.55998	26.23	8.87784
26.235	10.0384	26.235	9.46068
26.24	10.3977	26.24	9.8982
26.245	10.6676	26.245	10.2267
26.25	10.8705	26.25	10.4735
26.255	11.0231	26.255	10.659
26.26	11.138	26.26	10.7985
26.265	9.55925	26.265	9.23805
26.27	10.652	26.27	9.09353
26.275	10.8487	26.275	9.60877
26.28	10.9966	26.28	9.99557
26.285	11.108	26.285	10.286
26.29	9.52659	26.29	8.83884
26.295	10.3788	26.295	9.01774
26.3	10.6365	26.3	9.53413
26.305	10.8301	26.305	9.92176
26.31	10.9758	26.31	10.2128
26.315	10.0455	26.315	8.1406
26.32	10.3758	26.32	8.86092
26.325	10.624	26.325	9.40148
26.33	10.8105	26.33	9.80722
26.335	10.9507	26.335	10.1119
26.34	9.00396	26.34	9.06221
26.345	9.96397	26.345	9.15736
26.35	10.3025	26.35	9.61089
26.355	10.1698	26.355	10.3383
26.36	10.4525	26.36	10.5023
26.365	10.6649	26.365	10.6256
26.37	9.15921	26.37	9.05296
26.375	9.68117	26.375	9.52467
26.38	10.6985	26.38	9.25327
26.385	10.8385	26.385	9.67327
26.39	10.9439	26.39	9.98855
26.395	11.0233	26.395	10.2253
26.4	9.41785	26.4	8.73776
26.405	9.86496	26.405	9.27325
26.41	10.2006	26.41	9.67514
26.415	10.0658	26.415	10.3638
26.42	10.3468	26.42	10.4986
26.425	10.5579	26.425	10.6001
26.43	10.7166	26.43	10.6764
26.435	9.17057	26.435	9.06851
26.44	9.66224	26.44	9.51374
26.445	10.0313	26.445	9.84791
26.45	10.3084	26.45	10.0988
26.455	10.1296	26.455	10.6741
26.46	10.7647	26.46	10.3371
26.465	10.4724	26.465	10.8533
26.47	9.59554	26.47	8.56804
26.475	9.96578	26.475	9.12846
26.48	10.2438	26.48	9.54901
26.485	10.4525	26.485	9.86464
26.49	10.6094	26.49	10.1016
26.495	10.7274	26.495	10.2795
26.5	10.4292	26.5	10.8002
26.505	8.92234	26.505	9.1436
26.51	9.44336	26.51	9.55227
26.515	9.83441	26.515	9.85899
26.52	10.128	26.52	10.0892
26.525	9.96147	26.525	10.6491
26.53	10.2187	26.53	10.6873
26.535	10.412	26.535	10.7162
26.54	10.5572	26.54	10.738
26.545	10.6664	26.545	10.7546
26.55	9.08312	26.55	9.10189
26.555	9.54685	26.555	9.51342
26.56	9.8949	26.56	9.82225
26.565	10.1562	26.565	10.0541
26.57	9.96549	26.57	10.6151
26.575	10.2046	26.575	10.6541
26.58	10.3842	26.58	10.6836
26.585	10.5191	26.585	10.7059
26.59	10.6206	26.59	10.7228
26.595	9.03152	26.595	9.07033
26.6	9.49088	26.6	9.482
26.605	9.44869	26.605	10.1779
26.61	9.79915	26.61	10.3181
26.615	10.0622	26.615	10.4234
26.62	10.2598	26.62	10.5026
26.625	11.0337	26.625	9.93662
26.63	10.9911	26.63	10.1356
26.635	9.29394	26.635	8.61962
26.64	9.04674	26.64	9.75915
26.645	10.1103	26.645	9.36519
26.65	10.2849	26.65	9.69314
26.655	10.4161	26.655	9.93926
26.66	10.1278	26.66	10.5109
26.665	10.2936	26.665	10.558
26.67	10.4182	26.67	10.5934
26.675	10.5119	26.675	10.6201
26.68	10.5824	26.68	10.6403
26.685	8.97007	26.685	8.99023
26.69	9.41193	26.69	9.40367
26.695	9.74352	26.695	9.71389
26.7	9.99242	26.7	9.94668
26.705	9.79235	26.705	10.5083
26.71	10.0244	26.71	10.5479
26.715	10.1986	26.715	10.5776
26.72	10.3294	26.72	10.6001
26.725	10.4278	26.725	10.6171
26.73	10.5018	26.73	10.6299
26.735	10.5574	26.735	10.6397
26.74	10.5994	26.74	10.6471
26.745	8.96567	26.745	8.98747
26.75	9.39146	26.75	9.39372
26.755	9.71098	26.755	9.69852
26.76	9.9508	26.76	9.92723
26.765	10.1309	26.765	10.0989
26.77	10.2661	26.77	10.2277
26.775	10.3677	26.775	10.3245
26.78	10.4441	26.78	10.3971
26.785	10.5015	26.785	10.4517
26.79	8.87942	26.79	8.8274
26.795	8.68841	26.795	9.88562
26.8	9.16859	26.8	10.0561
26.805	9.52889	26.805	10.1841
26.81	9.79928	26.81	10.2801
26.815	10.0022	26.815	10.3523
26.82	10.1546	26.82	10.4065
26.825	10.2691	26.825	10.4472
26.83	10.3551	26.83	10.4778
26.835	10.4197	26.835	10.5009
26.84	10.4684	26.84	10.5183
26.845	8.83965	26.845	8.86606
26.85	9.26913	26.85	9.27784
26.855	9.59139	26.855	9.58674
26.86	9.83322	26.86	9.81849
26.865	10.0147	26.865	9.99238
26.87	10.151	26.87	10.1229
26.875	10.2534	26.875	10.2208
26.88	10.7172	26.88	9.90739
26.885	10.6834	26.885	10.0543
26.89	10.6582	26.89	10.1645
26.895	10.6394	26.895	10.2472
26.9	10.6255	26.9	10.3094
26.905	10.6152	26.905	10.356
26.91	10.6076	26.91	10.3911
26.915	9.97656	26.915	11.043
26.92	10.1267	26.92	10.9087
26.925	10.6264	26.925	10.4211
26.93	8.95406	26.93	8.77192
26.935	9.35082	26.935	9.186
26.94	9.64851	26.94	9.49662
26.945	9.8719	26.945	9.72963
26.95	10.0396	26.95	9.90445
26.955	10.1654	26.955	10.0356
26.96	10.26	26.96	10.1341
26.965	10.7179	26.965	9.82098
26.97	10.6797	26.97	9.9681
26.975	10.6511	26.975	10.0785
26.98	10.6298	26.98	10.1613
26.985	11.0009	26.985	9.83659
26.99	10.8975	26.99	9.97495
26.995	10.1945	26.995	10.7042
27	10.2907	27	10.628
27.005	10.363	27.005	10.5709
27.01	10.4174	27.01	10.5281
27.015	10.8452	27.015	10.1091
27.02	10.7843	27.02	10.1768
27.025	10.7388	27.025	10.2276
27.03	10.7047	27.03	10.2658
27.035	10.6793	27.035	10.2945
27.04	11.0473	27.04	9.9291
27.045	10.9416	27.045	10.037
27.05	10.8624	27.05	10.118
27.055	10.1777	27.055	10.8042
27.06	10.2875	27.06	10.6957
27.065	10.3701	27.065	10.6144
27.07	10.819	27.07	10.1665
27.075	10.774	27.075	10.2125
27.08	10.7403	27.08	10.2471
27.085	10.7152	27.085	10.273
27.09	11.0834	27.09	9.90563
27.095	10.9779	27.095	10.012
27.1	10.8988	27.1	10.0918
27.105	10.8396	27.105	10.1518
27.11	10.7954	27.11	10.1968
27.115	10.1368	27.115	10.8561
27.12	10.2663	27.12	10.7273
27.125	10.3635	27.125	10.6308
27.13	9.15813	27.13	8.50615
27.135	9.52321	27.135	8.94545
27.14	9.79712	27.14	9.27496
27.145	10.0027	27.145	9.52214
27.15	10.5438	27.15	9.32061
27.155	10.568	27.155	9.55137
27.16	10.5862	27.16	9.72448
27.165	10.5999	27.165	9.85434
27.17	10.6104	27.17	9.95179
27.175	9.9928	27.175	10.6504
27.18	10.153	27.18	10.5511
27.185	10.6602	27.185	10.0897
27.19	10.6588	27.19	10.1256
27.195	10.6579	27.195	10.1526
27.2	10.6573	27.2	10.1728
27.205	10.657	27.205	10.188
27.21	11.0438	27.21	9.81255
27.215	10.9521	27.215	9.91284
27.22	10.8834	27.22	9.9881
27.225	10.832	27.225	10.0446
27.23	10.1681	27.23	10.7125
27.235	10.2936	27.235	10.5901
27.24	10.3877	27.24	10.4984
27.245	10.8454	27.245	10.0428
27.25	10.42	27.25	10.4699
27.255	10.8698	27.255	10.0214
27.26	10.8254	27.26	10.067
27.265	10.7922	27.265	10.1012
27.27	10.7674	27.27	10.1269
27.275	10.1234	27.275	10.7717
27.28	10.6507	27.28	10.2451
27.285	10.2775	27.285	10.619
27.29	10.7665	27.29	10.1307
27.295	10.7515	27.295	10.1464
27.3	10.7403	27.3	10.1581
27.305	10.7321	27.305	10.167
27.31	10.726	27.31	10.1737
27.315	10.7215	27.315	10.1788
27.32	10.7182	27.32	10.1826
27.325	10.7159	27.325	10.1856
27.33	10.0887	27.33	10.8133
27.335	10.6287	27.335	10.2739
27.34	10.6519	27.34	10.2512
27.345	10.2825	27.345	10.6213
27.35	10.7743	27.35	10.13
27.355	10.7614	27.355	10.1435
27.36	10.7518	27.36	10.1536
27.365	10.7447	27.365	10.1612
27.37	10.7395	27.37	10.167
27.375	10.7357	27.375	10.1714
27.38	10.7329	27.38	10.1747
27.385	10.1055	27.385	10.8027
27.39	10.2583	27.39	10.6505
27.395	10.3729	27.395	10.5364
27.4	10.4591	27.4	10.4509
27.405	10.5237	27.405	10.3867
27.41	10.5723	27.41	10.3387
27.415	10.6089	27.415	10.3027
27.42	11.0233	27.42	9.88881
27.425	10.9524	27.425	9.9603
27.43	10.8993	27.43	10.014
27.435	10.8596	27.435	10.0542
27.44	10.2044	27.44	10.71
27.445	10.3364	27.445	10.5786
27.45	10.4355	27.45	10.48
27.455	10.5099	27.455	10.4062
27.46	10.5658	27.46	10.3509
27.465	10.6078	27.465	10.3094
27.47	10.6394	27.47	10.2783
27.475	10.6633	27.475	10.2551
27.48	10.0557	27.48	10.8632
27.485	10.6104	27.485	10.3091
27.49	10.2577	27.49	10.6624
27.495	10.762	27.495	10.1586
27.5	9.09315	27.5	8.49721
27.505	9.49246	27.505	8.90212
27.51	9.79201	27.51	9.20583
27.515	10.0167	27.515	9.43364
27.52	10.1854	27.52	9.60453
27.525	9.68645	27.525	10.3582
27.53	9.9356	27.53	10.3002
27.535	10.1225	27.535	10.2567
27.54	10.6498	27.54	9.83721
27.545	10.6634	27.545	9.90447
27.55	10.6737	27.55	9.95493
27.555	10.6815	27.555	9.99281
27.56	10.6874	27.56	10.0212
27.565	10.0664	27.565	10.6681
27.57	10.2241	27.57	10.53
27.575	10.3424	27.575	10.4264
27.58	10.8181	27.58	9.96181
27.585	10.7931	27.585	9.99526
27.59	10.7744	27.59	10.0204
27.595	10.7605	27.595	10.0392
27.6	10.7502	27.6	10.0534
27.605	10.7425	27.605	10.0641
27.61	10.4982	27.61	10.3106
27.615	10.1696	27.615	10.6411
27.62	10.692	27.62	10.1202
27.625	10.702	27.625	10.1114
27.63	10.7096	27.63	10.1048
27.635	10.7153	27.635	10.1
27.64	10.7197	27.64	10.0963
27.645	10.7231	27.645	10.0936
27.65	10.7257	27.65	10.0916
27.655	10.7277	27.655	10.0901
27.66	10.7293	27.66	10.0891
27.665	10.7306	27.665	10.0883
27.67	10.493	27.67	10.3263
27.675	10.5564	27.675	10.2634
27.68	10.604	27.68	10.2162
27.685	10.6397	27.685	10.1809
27.69	10.6666	27.69	10.1545
27.695	10.6869	27.695	10.1346
27.7	10.7021	27.7	10.1198
27.705	10.7136	27.705	10.1087
27.71	10.7223	27.71	10.1004
27.715	11.1159	27.715	9.70728
27.72	11.0292	27.72	9.79433
27.725	10.3389	27.725	10.4851
27.73	10.4444	27.73	10.38
27.735	10.5237	27.735	10.3011
27.74	10.5832	27.74	10.2421
27.745	10.6279	27.745	10.1978
27.75	10.6615	27.75	10.1646
27.755	10.6867	27.755	10.1397
27.76	10.7057	27.76	10.1211
27.765	10.7201	27.765	10.1072
27.77	10.7309	27.77	10.0968
27.775	10.7391	27.775	10.089
27.78	10.7453	27.78	10.0832
27.785	10.75	27.785	10.0789
27.79	10.7537	27.79	10.0757
27.795	10.7564	27.795	10.0733
27.8	10.7586	27.8	10.0715
27.805	10.7603	27.805	10.0702
27.81	10.1362	27.81	10.6948
27.815	10.2914	27.815	10.54
27.82	10.4079	27.82	10.4239
27.825	10.4953	27.825	10.3368
27.83	10.561	27.83	10.2716
27.835	10.6103	27.835	10.2227
27.84	10.6474	27.84	10.1861
27.845	10.6752	27.845	10.1586
27.85	10.6962	27.85	10.138
27.855	10.712	27.855	10.1227
27.86	10.7239	27.86	10.1112
27.865	10.7329	27.865	10.1026
27.87	10.7397	27.87	10.0961
27.875	10.7449	27.875	10.0914
27.88	10.7489	27.88	10.0878
27.885	10.7519	27.885	10.0852
27.89	10.7543	27.89	10.0832
27.895	10.7561	27.895	10.0818
27.9	10.7575	27.9	10.0808
27.905	10.7587	27.905	10.08
27.91	10.7596	27.91	10.0795
27.915	10.7604	27.915	10.0791
27.92	10.7611	27.92	10.0789
27.925	10.7616	27.925	10.0787
27.93	10.7621	27.93	10.0787
27.935	10.1371	27.935	10.7041
27.94	10.2916	27.94	10.55
27.945	10.4076	27.945	10.4344
27.95	10.4947	27.95	10.3477
27.955	10.56	27.955	10.2828
27.96	10.6091	27.96	10.2341
27.965	10.2591	27.965	10.5846
27.97	10.7654	27.97	10.0786
27.975	10.7634	27.975	10.0811
27.98	10.7619	27.98	10.083
27.985	10.3739	27.985	10.4713
27.99	10.4649	27.99	10.3808
27.995	10.5332	27.995	10.3129
28	10.5845	28	10.262
28.005	10.623	28.005	10.2239
28.01	10.652	28.01	10.1954
28.015	10.6737	28.015	10.174
28.02	10.6902	28.02	10.158
28.025	10.7025	28.025	10.146
28.03	10.7119	28.03	10.137
28.035	10.719	28.035	10.1304
28.04	10.7244	28.04	10.1254
28.045	10.7285	28.045	10.1217
28.05	10.7316	28.05	10.119
28.055	10.7341	28.055	10.1169
28.06	9.07056	28.06	8.45005
28.065	9.47387	28.065	8.8508
28.07	9.77641	28.07	9.15137
28.075	9.61641	28.075	9.76376
28.08	9.87833	28.08	9.8412
28.085	10.0748	28.085	9.8993
28.09	10.2222	28.09	9.94288
28.095	10.3329	28.095	9.97559
28.1	10.4159	28.1	10.0001
28.105	10.4782	28.105	10.0185
28.11	10.525	28.11	10.0324
28.115	10.5601	28.115	10.0428
28.12	10.5865	28.12	10.0506
28.125	10.6063	28.125	10.0564
28.13	10.6213	28.13	10.0608
28.135	10.6325	28.135	10.0642
28.14	10.641	28.14	10.0667
28.145	10.6474	28.145	10.0686
28.15	10.6523	28.15	10.07
28.155	10.656	28.155	10.0711
28.16	10.6588	28.16	10.0719
28.165	10.2741	28.165	10.4595
28.17	10.3674	28.17	10.3683
28.175	10.4374	28.175	10.3
28.18	10.49	28.18	10.2487
28.185	10.5295	28.185	10.2103
28.19	10.5592	28.19	10.1815
28.195	10.5815	28.195	10.1599
28.2	10.2113	28.2	10.5307
28.205	10.3156	28.205	10.4269
28.21	10.3939	28.21	10.3491
28.215	10.4526	28.215	10.2907
28.22	10.4967	28.22	10.247
28.225	10.5299	28.225	10.2142
28.23	10.5548	28.23	10.1896
28.235	10.5735	28.235	10.1712
28.24	10.5876	28.24	10.1574
28.245	10.5982	28.245	10.147
28.25	10.6062	28.25	10.1393
28.255	10.2253	28.255	10.5204
28.26	10.3216	28.26	10.4244
28.265	10.3938	28.265	10.3525
28.27	10.4481	28.27	10.2985
28.275	10.4888	28.275	10.258
28.28	10.5194	28.28	10.2277
28.285	10.5424	28.285	10.205
28.29	10.5597	28.29	10.1879
28.295	10.1857	28.295	10.5621
28.3	10.2872	28.3	10.4609
28.305	10.3634	28.305	10.385
28.31	10.4205	28.31	10.3281
28.315	10.4635	28.315	10.2854
28.32	8.8303	28.32	8.58803
28.325	9.25636	28.325	8.96588
28.33	9.57593	28.33	9.24926
28.335	9.81565	28.335	9.46179
28.34	9.99546	28.34	9.62119
28.345	10.1304	28.345	9.74073
28.35	10.2316	28.35	9.83037
28.355	10.3075	28.355	9.89761
28.36	10.3645	28.36	9.94802
28.365	10.4072	28.365	9.98583
28.37	10.4393	28.37	10.0142
28.375	10.0765	28.375	10.4224
28.38	10.5732	28.38	9.95972
28.385	10.177	28.385	10.3815
28.39	10.2617	28.39	10.316
28.395	10.3252	28.395	10.2669
28.4	10.373	28.4	10.23
28.405	10.4088	28.405	10.2024
28.41	10.4357	28.41	10.1816
28.415	10.4559	28.415	10.1661
28.42	10.471	28.42	10.1544
28.425	10.4824	28.425	10.1456
28.43	10.491	28.43	10.139
28.435	10.4975	28.435	10.1341
28.44	10.5024	28.44	10.1304
28.445	11.1316	28.445	9.50212
28.45	10.9802	28.45	9.65418
28.455	10.2413	28.455	10.3937
28.46	10.9358	28.46	9.69959
28.465	10.8335	28.465	9.80227
28.47	10.7568	28.47	9.87927
28.475	10.6993	28.475	9.93702
28.48	10.6562	28.48	9.98032
28.485	10.237	28.485	10.3997
28.49	10.6914	28.49	9.94548
28.495	11.9288	28.495	12.039
28.5	11.5879	28.5	11.5764
28.505	11.3323	28.505	11.2294
28.51	11.1406	28.51	10.9692
28.515	10.9969	28.515	10.7741
28.52	10.8892	28.52	10.6278
28.525	10.8084	28.525	10.518
28.53	10.7479	28.53	10.4357
28.535	10.7026	28.535	10.374
28.54	10.6687	28.54	10.3278
28.545	10.6433	28.545	10.2931
28.55	10.6242	28.55	10.2671
28.555	10.61	28.555	10.2476
28.56	10.2125	28.56	10.6199
28.565	10.2963	28.565	10.5173
28.57	10.3591	28.57	10.4404
28.575	10.4063	28.575	10.3827
28.58	10.4418	28.58	10.3394
28.585	10.4684	28.585	10.307
28.59	10.4884	28.59	10.2827
28.595	10.5035	28.595	10.2645
28.6	11.1404	28.6	9.62536
28.605	10.9948	28.605	9.7693
28.61	10.8856	28.61	9.87726
28.615	10.8038	28.615	9.95825
28.62	10.3556	28.62	10.4059
28.625	10.4013	28.625	10.3599
28.63	10.4357	28.63	10.3253
28.635	10.4615	28.635	10.2994
28.64	10.4809	28.64	10.28
28.645	10.4955	28.645	10.2655
28.65	10.5065	28.65	10.2546
28.655	10.1279	28.655	10.6333
28.66	10.6128	28.66	10.1486
28.665	10.2077	28.665	10.5539
28.67	10.2858	28.67	10.476
28.675	10.3444	28.675	10.4176
28.68	10.3884	28.68	10.3738
28.685	10.4215	28.685	10.341
28.69	10.4463	28.69	10.3164
28.695	10.465	28.695	10.2979
28.7	10.4791	28.7	10.2841
28.705	10.4897	28.705	10.2738
28.71	10.1108	28.71	10.653
28.715	10.2085	28.715	10.5555
28.72	10.2818	28.72	10.4824
28.725	10.3369	28.725	10.4276
28.73	10.3782	28.73	10.3865
28.735	10.4093	28.735	10.3557
28.74	10.4326	28.74	10.3326
28.745	10.4502	28.745	10.3153
28.75	10.4634	28.75	10.3024
28.755	11.0988	28.755	9.66716
28.76	8.89986	28.76	8.5356
28.765	9.28343	28.765	8.95595
28.77	9.57113	28.77	9.2712
28.775	9.78694	28.775	9.50763
28.78	9.94883	28.78	9.68494
28.785	10.0703	28.785	9.81792
28.79	10.1614	28.79	9.91765
28.795	10.2298	28.795	9.99243
28.8	10.2811	28.8	10.0485
28.805	10.3196	28.805	10.0906
28.81	10.3486	28.81	10.1221
28.815	10.3703	28.815	10.1457
28.82	10.3866	28.82	10.1635
28.825	10.3989	28.825	10.1767
28.83	10.0212	28.83	10.5736
28.835	10.1198	28.835	10.4894
28.84	10.1938	28.84	10.4263
28.845	10.2493	28.845	10.3789
28.85	10.291	28.85	10.3434
28.855	10.3223	28.855	10.3167
28.86	10.3458	28.86	10.2967
28.865	10.3635	28.865	10.2817
28.87	10.3768	28.87	10.2704
28.875	10.3868	28.875	10.262
28.88	10.3943	28.88	10.2556
28.885	10.4	28.885	10.2508
28.89	10.4043	28.89	10.2472
28.895	10.4075	28.895	10.2445
28.9	10.41	28.9	10.2425
28.905	10.4119	28.905	10.241
28.91	10.4134	28.91	10.2398
28.915	10.4145	28.915	10.2389
28.92	10.4154	28.92	10.2383
28.925	10.416	28.925	10.2378
28.93	10.4166	28.93	10.2374
28.935	10.417	28.935	10.2371
28.94	12.0828	28.94	11.9022
28.945	11.6813	28.945	11.5002
28.95	11.3802	28.95	11.1987
28.955	11.1545	28.955	10.9726
28.96	10.9852	28.96	10.8031
28.965	10.8583	28.965	10.6759
28.97	10.7632	28.97	10.5805
28.975	10.6919	28.975	10.509
28.98	10.6385	28.98	10.4554
28.985	10.5985	28.985	10.4152
28.99	10.5685	28.99	10.385
28.995	10.5461	28.995	10.3624
29	10.5294	29	10.3455
29.005	10.5168	29.005	10.3328
29.01	10.5075	29.01	10.3233
29.015	10.5006	29.015	10.3162
29.02	10.4954	29.02	10.3108
29.025	10.4916	29.025	10.3069
29.03	10.8757	29.03	9.91694
29.035	10.782	29.035	10.0064
29.04	10.3248	29.04	10.4604
29.045	10.7508	29.045	10.0321
29.05	10.6885	29.05	10.0928
29.055	10.6418	29.055	10.1383
29.06	10.6069	29.06	10.1724
29.065	10.5807	29.065	10.1981
29.07	10.5611	29.07	10.2173
29.075	10.5465	29.075	10.2317
29.08	10.5356	29.08	10.2426
29.085	10.5274	29.085	10.2507
29.09	10.5214	29.09	10.2568
29.095	10.5169	29.095	10.2614
29.1	10.5136	29.1	10.2649
29.105	10.8981	29.105	9.88052
29.11	10.8047	29.11	9.97413
29.115	10.7347	29.115	10.0444
29.12	10.6822	29.12	10.097
29.125	10.6429	29.125	10.1366
29.13	10.6135	29.13	10.1662
29.135	10.5915	29.135	10.1885
29.14	10.575	29.14	10.2052
29.145	10.5628	29.145	10.2177
29.15	10.5536	29.15	10.2271
29.155	10.5468	29.155	10.2342
29.16	10.5417	29.16	10.2395
29.165	10.538	29.165	10.2435
29.17	10.5352	29.17	10.2465
29.175	10.5332	29.175	10.2488
29.18	10.5317	29.18	10.2505
29.185	10.9177	29.185	9.86482
29.19	10.8253	29.19	9.95745
29.195	10.756	29.195	10.0269
29.2	10.7042	29.2	10.0791
29.205	10.6653	29.205	10.1182
29.21	10.6362	29.21	10.1475
29.215	10.6145	29.215	10.1695
29.22	10.5982	29.22	10.1861
29.225	10.5861	29.225	10.1985
29.23	10.577	29.23	10.2078
29.235	10.5703	29.235	10.2148
29.24	10.5653	29.24	10.22
29.245	10.5616	29.245	10.224
29.25	10.5588	29.25	10.227
29.255	10.5568	29.255	10.2292
29.26	10.5554	29.26	10.2309
29.265	10.5544	29.265	10.2322
29.27	10.9406	29.27	9.8462
29.275	10.8485	29.275	9.93859
29.28	10.3925	29.28	10.3948
29.285	10.4324	29.285	10.3552
29.29	10.4624	29.29	10.3254
29.295	10.8719	29.295	9.9162
29.3	10.7972	29.3	9.99115
29.305	10.3543	29.305	10.4343
29.31	10.791	29.31	9.99789
29.315	10.7367	29.315	10.0525
29.32	10.696	29.32	10.0934
29.325	10.6655	29.325	10.1241
29.33	10.6428	29.33	10.1471
29.335	8.96032	29.335	8.49902
29.34	9.34942	29.34	8.91383
29.345	9.64128	29.345	9.22493
29.35	9.86021	29.35	9.45824
29.355	10.0244	29.355	9.63322
29.36	10.1476	29.36	9.76444
29.365	10.2401	29.365	9.86285
29.37	10.3094	29.37	9.93665
29.375	10.3615	29.375	9.99199
29.38	10.4006	29.38	10.0335
29.385	10.4299	29.385	10.0646
29.39	10.452	29.39	10.0879
29.395	10.4685	29.395	10.1054
29.4	10.481	29.4	10.1185
29.405	10.4904	29.405	10.1284
29.41	10.4974	29.41	10.1357
29.415	10.5028	29.415	10.1412
29.42	9.88131	29.42	10.7708
29.425	10.0385	29.425	10.6197
29.43	9.76953	29.43	10.8934
29.435	10.3366	29.435	10.3298
29.44	10.3801	29.44	10.2889
29.445	10.4128	29.445	10.2583
29.45	10.0503	29.45	10.6223
29.455	10.5474	29.455	10.1264
29.46	10.5383	29.46	10.1364
29.465	10.5315	29.465	10.1439
29.47	10.5265	29.47	10.1495
29.475	10.5228	29.475	10.1537
29.48	10.52	29.48	10.1568
29.485	10.5179	29.485	10.1591
29.49	10.5164	29.49	10.1609
29.495	10.5153	29.495	10.1622
29.5	10.5145	29.5	10.1632
29.505	10.514	29.505	10.1639
29.51	10.5136	29.51	10.1644
29.515	10.5133	29.515	10.1648
29.52	10.5132	29.52	10.1651
29.525	10.5131	29.525	10.1653
29.53	10.5131	29.53	10.1655
29.535	10.5131	29.535	10.1656
29.54	10.5131	29.54	10.1656
29.545	10.9001	29.545	9.77873
29.55	10.4216	29.55	10.2574
29.555	10.8315	29.555	9.84751
29.56	10.7572	29.56	9.92198
29.565	10.7014	29.565	9.97783
29.57	10.6597	29.57	10.0197
29.575	10.6284	29.575	10.0511
29.58	10.6049	29.58	10.0747
29.585	10.5874	29.585	10.0923
29.59	10.5742	29.59	10.1055
29.595	10.5644	29.595	10.1154
29.6	10.5571	29.6	10.1229
29.605	10.5516	29.605	10.1284
29.61	10.5476	29.61	10.1326
29.615	10.5446	29.615	10.1357
29.62	10.5423	29.62	10.1381
29.625	10.9276	29.625	9.75285
29.63	10.4478	29.63	10.2328
29.635	10.8568	29.635	9.82386
29.64	12.4472	29.64	11.5644
29.645	11.989	29.645	11.219
29.65	11.6455	29.65	10.9599
29.655	11.3879	29.655	10.7656
29.66	11.1948	29.66	10.6199
29.665	11.05	29.665	10.5107
29.67	10.3159	29.67	11.0542
29.675	10.3887	29.675	10.8386
29.68	10.4434	29.68	10.6769
29.685	10.4844	29.685	10.5557
29.69	10.5153	29.69	10.4647
29.695	10.5384	29.695	10.3965
29.7	10.5559	29.7	10.3454
29.705	10.569	29.705	10.3071
29.71	10.5789	29.71	10.2784
29.715	10.5864	29.715	10.2568
29.72	10.592	29.72	10.2407
29.725	10.5963	29.725	10.2286
29.73	10.5996	29.73	10.2195
29.735	10.6021	29.735	10.2127
29.74	10.604	29.74	10.2077
29.745	10.6055	29.745	10.2039
29.75	10.6067	29.75	10.201
29.755	10.6076	29.755	10.1989
29.76	10.6084	29.76	10.1974
29.765	10.609	29.765	10.1962
29.77	10.6095	29.77	10.1953
29.775	10.6099	29.775	10.1947
29.78	10.6103	29.78	10.1942
29.785	10.6106	29.785	10.1939
29.79	10.6109	29.79	10.1937
29.795	10.6112	29.795	10.1935
29.8	10.6115	29.8	10.1934
29.805	10.6117	29.805	10.1933
29.81	10.612	29.81	10.1933
29.815	10.6122	29.815	10.1933
29.82	10.6124	29.82	10.1933
29.825	10.6126	29.825	10.1933
29.83	10.6128	29.83	10.1933
29.835	10.6131	29.835	10.1933
29.84	10.6133	29.84	10.1934
29.845	10.6135	29.845	10.1934
29.85	10.6137	29.85	10.1935
29.855	10.6139	29.855	10.1935
29.86	10.6141	29.86	10.1935
29.865	10.6143	29.865	10.1936
29.87	10.6145	29.87	10.1936
29.875	10.6147	29.875	10.1937
29.88	10.6149	29.88	10.1937
29.885	10.6151	29.885	10.1938
29.89	8.94993	29.89	8.52844
29.895	8.96501	29.895	9.31726
29.9	9.74517	29.9	9.14006
29.905	9.94845	29.905	9.38902
29.91	9.714	29.91	9.96268
29.915	10.307	29.915	9.6241
29.92	9.98298	29.92	10.139
29.925	10.1219	29.925	10.1433
29.93	10.226	29.93	10.1465
29.935	10.3042	29.935	10.1489
29.94	10.3629	29.94	10.1507
29.945	10.4069	29.945	10.152
29.95	10.44	29.95	10.153
29.955	10.4648	29.955	10.1537
29.96	9.85796	29.96	10.7798
29.965	10.6516	29.965	10.0005
29.97	10.6236	29.97	10.0394
29.975	9.97718	29.975	10.694
29.98	9.7287	29.98	10.9486
29.985	10.3112	29.985	10.3707
29.99	9.97927	29.99	10.7062
29.995	10.1122	29.995	10.5759
30	-2.93733	30	-2.67119
30.005	-2.87994	30.005	-2.76195
30.01	-2.84123	30.01	-2.83439
30.015	-2.81653	30.015	-2.89309
30.02	-2.80234	30.02	-2.94148
30.025	-2.79602	30.025	-2.98214
30.03	-3.18257	30.03	-2.63006
30.035	-2.708	30.035	-3.13918
30.04	-2.73827	30.04	-3.14353
30.045	-3.15225	30.045	-2.76421
30.05	-2.69825	30.05	-3.2529
30.055	-1.07856	30.055	-1.57652
30.06	-1.90594	30.06	-1.58754
30.065	-2.38746	30.065	-1.74348
30.07	-2.51151	30.07	-2.10619
30.075	-2.60885	30.075	-2.38257
30.08	-2.68618	30.08	-2.59421
30.085	-2.74849	30.085	-2.75728
30.09	-1.13413	30.09	-1.21854
30.095	-2.20404	30.095	-1.09423
30.1	-2.38749	30.1	-1.62859
30.105	-0.863979	30.105	-0.368298
30.11	-1.76346	30.11	-0.691333
30.115	-0.633622	30.115	0.584147
30.12	-1.19999	30.12	-0.355833
30.125	-0.589102	30.125	1.22577
30.13	-1.1628	30.13	0.133539
30.135	0.455031	30.135	0.588546
30.14	1.29682	30.14	1.32192
30.145	-0.352413	30.145	0.842308
30.15	0.695129	30.15	1.52049
30.155	1.87805	30.155	1.65248
30.16	1.76824	30.16	2.76913
30.165	2.31951	30.165	2.99367
30.17	4.1702	30.17	5.07636
30.175	4.15915	30.175	4.75647
30.18	2.49589	30.18	2.86157
30.185	5.61509	30.185	7.05797
30.19	3.62107	30.19	4.62528
30.195	4.17388	30.195	4.07518
30.2	5.644	30.2	5.95889
30.205	5.34765	30.205	5.4899
30.21	5.13595	30.21	5.1487
30.215	8.7055	30.215	7.84721
30.22	7.08417	30.22	7.58728
30.225	6.50211	30.225	6.7797
30.23	11.8463	30.23	10.407
30.235	9.52336	30.235	9.57471
30.24	8.41518	30.24	8.33799
30.245	13.3649	30.245	11.6435
30.25	11.3717	30.25	9.94459
30.255	9.88765	30.255	8.68126
30.26	10.8379	30.26	9.0231
30.265	9.52873	30.265	8.02139
30.27	7.93236	30.27	7.90654
30.275	13.1394	30.275	11.4304
30.28	11.3394	30.28	9.89539
30.285	10.3874	30.285	8.36825
30.29	14.6857	30.29	12.2251
30.295	12.5861	30.295	10.5581
30.3	11.0226	30.3	9.31899
30.305	15.6313	30.305	12.6232
30.31	13.3827	30.31	10.9236
30.315	17.0907	30.315	14.2695
30.32	14.5485	30.32	12.2195
30.325	12.6533	30.325	10.6934
30.33	13.2956	30.33	10.8387
30.335	13.4215	30.335	11.3554
30.34	12.2635	30.34	9.71667
30.345	16.4077	30.345	13.4902
30.35	14.193	30.35	11.7611
30.355	12.5435	30.355	10.4759
30.36	12.9835	30.36	11.189
30.365	13.7266	30.365	11.3631
30.37	12.2628	30.37	10.2363
30.375	16.173	30.375	14.3991
30.38	14.5516	30.38	12.1934
30.385	12.9656	30.385	10.9328
30.39	14.0788	30.39	11.0391
30.395	14.3168	30.395	11.7685
30.4	12.8564	30.4	10.6765
30.405	15.4907	30.405	12.8133
30.41	13.7948	30.41	11.508
30.415	12.5349	30.415	10.541
30.42	14.5459	30.42	13.5455
30.425	13.5332	30.425	11.7404
30.43	12.6425	30.43	10.542
30.435	13.4106	30.435	11.5621
30.44	12.348	30.44	10.6885
30.445	11.5632	30.445	10.0454
30.45	13.9306	30.45	13.2931
30.455	12.7986	30.455	12.0574
30.46	12.5873	30.46	10.5174
30.465	16.4272	30.465	15.3812
30.47	14.3617	30.47	14.0937
30.475	19.72	30.475	19.5687
30.48	16.6626	30.48	17.5688
30.485	15.6309	30.485	14.8327
30.49	16.4163	30.49	17.908
30.495	15.1003	30.495	15.5412
30.5	13.2591	30.5	14.6455
30.505	14.031	30.505	15.1769
30.51	12.7253	30.51	14.1837
30.515	12.1405	30.515	13.0696
30.52	12.8447	30.52	14.4475
30.525	11.6316	30.525	13.9459
30.53	11.5963	30.53	12.7207
30.535	12.2327	30.535	14.4952
30.54	11.4487	30.54	13.8112
30.545	11.494	30.545	12.6907
30.55	12.1909	30.55	14.5438
30.555	9.78704	30.555	12.2535
30.56	11.1598	30.56	14.0184
30.565	11.0738	30.565	13.1817
30.57	10.6353	30.57	12.9542
30.575	9.92735	30.575	13.1885
30.58	9.7862	30.58	13.0004
30.585	8.40983	30.585	10.825
30.59	8.50611	30.59	11.3928
30.595	9.11368	30.595	11.3093
30.6	7.53009	30.6	9.98127
30.605	8.00127	30.605	10.6542
30.61	8.36265	30.61	11.1771
30.615	6.97632	30.615	9.92202
30.62	8.22096	30.62	10.0243
30.625	8.53921	30.625	10.7424
30.63	7.50751	30.63	9.24684
30.635	8.01082	30.635	10.1761
30.64	8.78333	30.64	10.5043
30.645	7.71049	30.645	9.09826
30.65	6.5176	30.65	8.42929
30.655	7.66886	30.655	9.20974
30.66	6.88012	30.66	8.14284
30.665	7.5657	30.665	9.39368
30.67	6.80957	30.67	8.29773
30.675	7.90659	30.675	9.13984
30.68	6.69025	30.68	8.50619
30.685	7.82399	30.685	9.31318
30.69	7.02215	30.69	8.26624
30.695	8.08493	30.695	9.14516
30.7	7.22988	30.7	8.1522
30.705	8.25277	30.705	9.07161
30.71	7.36784	30.71	8.10904
30.715	7.08987	30.715	6.99892
30.72	8.16372	30.72	8.21235
30.725	7.31703	30.725	7.47031
30.73	8.73316	30.73	8.191
30.735	7.76133	30.735	7.4613
30.74	6.40581	30.74	7.53829
30.745	7.67666	30.745	8.63696
30.75	6.97776	30.75	7.80889
30.755	8.50477	30.755	8.4651
30.76	7.61614	30.76	7.68707
30.765	7.33548	30.765	6.71543
30.77	8.40739	30.77	8.03281
30.775	7.55931	30.775	7.3688
30.78	6.92213	30.78	6.86965
30.785	8.49548	30.785	7.77259
30.79	7.64164	30.79	7.17964
30.795	7.38711	30.795	6.34686
30.8	8.47865	30.8	7.76841
30.805	8.03229	30.805	6.79563
30.81	6.68909	30.81	7.07228
30.815	8.35623	30.815	7.93384
30.82	7.57277	30.82	7.3099
30.825	9.03647	30.825	8.11931
30.83	10.1528	30.83	8.73472
30.835	8.95624	30.835	7.9262
30.84	10.1102	30.84	8.59722
30.845	9.32879	30.845	7.44348
30.85	8.3599	30.85	6.95901
30.855	9.05909	30.855	8.49856
30.86	8.17302	30.86	7.75991
30.865	9.55982	30.865	8.48337
30.87	10.6186	30.87	9.03439
30.875	9.76584	30.875	7.79072
30.88	8.7435	30.88	7.23886
30.885	10.0281	30.885	8.10244
30.89	8.95795	30.89	7.48015
30.895	9.81977	30.895	8.67788
30.9	8.57581	30.9	8.16289
30.905	9.54873	30.905	9.1997
30.91	9.0136	30.91	7.93856
30.915	10.2818	30.915	8.65211
30.92	11.2517	30.92	9.1958
30.925	9.94554	30.925	8.33367
30.93	8.96506	30.93	7.68619
30.935	10.2812	30.935	8.47816
30.94	9.2347	30.94	7.80226
30.945	9.87586	30.945	9.19841
30.95	8.94644	30.95	8.35239
30.955	9.91396	30.955	9.38244
30.96	11.0403	30.96	9.78171
30.965	9.85145	30.965	8.81135
30.97	8.95907	30.97	8.08278
30.975	12.0068	30.975	10.4794
30.98	10.6081	30.98	9.35619
30.985	9.55843	30.985	8.51303
30.99	10.1973	30.99	9.78383
30.995	9.26623	30.995	8.84389
31	10.2326	31	9.8036
31.005	10.9712	31.005	10.5372
31.01	9.87358	31.01	9.43575
31.015	9.04969	31.015	8.60899
31.02	10.0965	31.02	9.65361
31.025	9.61698	31.025	8.39857
31.03	8.87482	31.03	7.83846
31.035	9.596	31.035	9.47005
31.04	8.86721	31.04	8.66033
31.045	9.98538	31.045	9.71777
31.05	9.1725	31.05	8.85931
31.055	7.93673	31.055	8.84031
31.06	9.29796	31.06	9.86755
31.065	8.66738	31.065	8.98646
31.07	8.19384	31.07	8.32502
31.075	9.50349	31.075	9.49372
31.08	8.83425	31.08	8.71874
31.085	8.33173	31.085	8.13691
31.09	9.61966	31.09	9.36533
31.095	8.93415	31.095	8.63518
31.1	8.41945	31.1	8.08697
31.105	8.03287	31.105	7.67524
31.11	9.40776	31.11	9.03125
31.115	8.78749	31.115	8.39681
31.12	7.30932	31.12	8.93283
31.125	8.87068	31.125	9.99455
31.13	8.39028	31.13	9.1394
31.135	8.02946	31.135	8.4975
31.14	9.42371	31.14	9.68093
31.145	8.43105	31.145	9.30402
31.15	8.06792	31.15	8.63896
31.155	7.79506	31.155	8.13963
31.16	9.25531	31.16	9.43001
31.165	8.69911	31.165	8.7464
31.17	8.28147	31.17	8.23319
31.175	7.96776	31.175	7.84777
31.18	7.73199	31.18	7.5582
31.185	9.22007	31.185	9.00592
31.19	8.05928	31.19	9.06581
31.195	7.42455	31.195	8.87391
31.2	7.3299	31.2	8.34764
31.205	8.92384	31.205	9.61785
31.21	8.46795	31.21	8.91915
31.215	9.79098	31.215	10.0601
31.22	9.13193	31.22	9.26439
31.225	8.25026	31.225	9.05415
31.23	7.97044	31.23	8.51415
31.235	9.42555	31.235	9.7741
31.24	8.86557	31.24	9.06775
31.245	8.44517	31.245	8.53755
31.25	7.50398	31.25	8.76496
31.255	7.42095	31.255	8.31182
31.26	7.35826	31.26	7.97153
31.265	8.97623	31.265	9.38129
31.27	8.53842	31.27	8.78731
31.275	8.20967	31.275	8.34142
31.28	9.24116	31.28	10.0589
31.285	8.74538	31.285	9.31392
31.29	8.76011	31.29	8.36783
31.295	8.38893	31.295	8.03974
31.3	8.11016	31.3	7.79328
31.305	7.90071	31.305	7.60805
31.31	8.78316	31.31	9.75962
31.315	8.41703	31.315	9.09876
31.32	8.14207	31.32	8.60275
31.325	7.93549	31.325	8.23037
31.33	7.78021	31.33	7.95072
31.335	9.32878	31.335	9.40601
31.34	8.83898	31.34	8.84624
31.345	8.4713	31.345	8.42606
31.35	8.19519	31.35	8.11057
31.355	7.98778	31.355	7.87361
31.36	7.83188	31.36	7.69554
31.365	9.38002	31.365	9.22704
31.37	8.65137	31.37	8.96297
31.375	8.34598	31.375	8.52319
31.38	8.11662	31.38	8.19302
31.385	9.60967	31.385	9.61046
31.39	9.46521	31.39	8.63539
31.395	8.97471	31.395	8.28565
31.4	8.60653	31.4	8.02303
31.405	8.33009	31.405	7.82576
31.41	8.12247	31.41	7.67749
31.415	7.96645	31.415	7.56598
31.42	9.51453	31.42	9.14744
31.425	9.02442	31.425	8.68235
31.43	8.03107	31.43	8.95872
31.435	8.296	31.435	8.15549
31.44	8.11255	31.44	7.93465
31.445	9.64008	31.445	9.43412
31.45	9.52152	31.45	8.52061
31.455	9.05046	31.455	8.21708
31.46	8.69691	31.46	7.98916
31.465	7.80601	31.465	8.44343
31.47	8.14779	31.47	7.77365
31.475	9.30044	31.475	9.70525
31.48	9.2826	31.48	8.73399
31.485	8.88712	31.485	8.38716
31.49	8.59026	31.49	8.1268
31.495	8.36737	31.495	7.93127
31.5	8.19996	31.5	7.78437
31.505	8.46111	31.505	7.287
31.51	8.27485	31.51	7.29559
31.515	8.13492	31.515	7.30179
31.52	9.69512	31.52	8.97158
31.525	9.60111	31.525	8.18585
31.53	9.1485	31.53	7.97819
31.535	8.18334	31.535	8.44769
31.54	8.08252	31.54	8.17632
31.545	8.00668	31.545	7.97256
31.55	7.94957	31.55	7.81951
31.555	7.90651	31.555	7.70449
31.56	9.53939	31.56	9.28339
31.565	9.11295	31.565	8.81647
31.57	9.17985	31.57	8.07911
31.575	8.84796	31.575	7.90775
31.58	8.59884	31.58	7.77902
31.585	8.41179	31.585	7.68227
31.59	8.27129	31.59	7.60949
31.595	7.92718	31.595	7.79323
31.6	7.9103	31.6	7.68941
31.605	7.89743	31.605	7.61134
31.61	7.88756	31.61	7.55258
31.615	7.49301	31.615	7.89525
31.62	7.57876	31.62	7.77017
31.625	7.64286	31.625	7.67615
31.63	7.69073	31.63	7.60543
31.635	7.72642	31.635	7.55218
31.64	7.75298	31.64	7.51203
31.645	7.77269	31.645	7.48171
31.65	7.78727	31.65	7.45876
31.655	7.798	31.655	7.44134
31.66	9.47123	31.66	9.09346
31.665	9.07507	31.665	8.68146
31.67	9.16471	31.67	7.98533
31.675	8.84989	31.675	7.84491
31.68	8.37505	31.68	7.97793
31.685	8.26014	31.685	7.8361
31.69	8.17376	31.69	7.72954
31.695	7.72185	31.695	8.03638
31.7	7.76458	31.7	7.88445
31.705	7.79645	31.705	7.77032
31.71	7.82016	31.71	7.68453
31.715	7.83775	31.715	7.61999
31.72	7.85075	31.72	7.5714
31.725	7.86032	31.725	7.53477
31.73	7.8673	31.73	7.50711
31.735	7.87235	31.735	7.48617
31.74	7.87594	31.74	7.47028
31.745	7.87845	31.745	7.45817
31.75	7.88014	31.75	7.4489
31.755	7.88122	31.755	7.44176
31.76	7.88184	31.76	7.43621
31.765	7.64358	31.765	7.67039
31.77	7.7061	31.77	7.60443
31.775	9.4182	31.775	9.22017
31.78	9.05121	31.78	8.78092
31.785	8.77579	31.785	8.4513
31.79	8.18212	31.79	8.59087
31.795	8.11855	31.795	8.31351
31.8	8.0707	31.8	8.10532
31.805	8.03465	31.805	7.94901
31.81	8.00744	31.81	7.83161
31.815	7.98685	31.815	7.74339
31.82	7.97125	31.82	7.67705
31.825	7.95937	31.825	7.62713
31.83	7.95029	31.83	7.58952
31.835	7.94331	31.835	7.56114
31.84	7.9379	31.84	7.53969
31.845	7.93368	31.845	7.52343
31.85	7.93034	31.85	7.51107
31.855	7.92766	31.855	7.50163
31.86	7.92548	31.86	7.49438
31.865	7.92367	31.865	7.48877
31.87	7.29667	31.87	8.10987
31.875	7.44951	31.875	7.95226
31.88	7.56397	31.88	7.83388
31.885	7.64965	31.885	7.74493
31.89	7.71373	31.89	7.67805
31.895	7.76162	31.895	7.62772
31.9	9.46276	31.9	9.2552
31.905	9.08757	31.905	8.82477
31.91	8.80603	31.91	8.50179
31.915	8.59472	31.915	8.25941
31.92	8.43608	31.92	8.07748
31.925	8.31695	31.925	7.94088
31.93	8.22744	31.93	7.83828
31.935	8.16017	31.935	7.76118
31.94	8.10955	31.94	7.70321
31.945	8.07144	31.945	7.65958
31.95	8.0427	31.95	7.62671
31.955	8.021	31.955	7.60191
31.96	8.00456	31.96	7.58315
31.965	7.99208	31.965	7.56894
31.97	7.98257	31.97	7.55813
31.975	7.97529	31.975	7.54988
31.98	7.96967	31.98	7.54353
31.985	7.9653	31.985	7.53863
31.99	7.57493	31.99	7.92175
31.995	7.66386	31.995	7.82707
32	7.7304	32	7.75591
32.005	7.15468	32.005	8.32788
32.01	7.346	32.01	8.13343
32.015	7.48934	32.015	7.98745
32.02	7.59669	32.02	7.87781
32.025	7.67705	32.025	7.79543
32.03	7.73716	32.03	7.7335
32.035	7.7821	32.035	7.68691
32.04	7.81564	32.04	7.65181
32.045	7.84065	32.045	7.62534
32.05	9.52464	32.05	9.27074
32.055	9.13661	32.055	8.85376
32.06	8.84545	32.06	8.5409
32.065	8.62695	32.065	8.30613
32.07	8.46294	32.07	8.12992
32.075	8.33979	32.075	7.99763
32.08	8.2473	32.08	7.89829
32.085	8.17779	32.085	7.82365
32.09	8.12553	32.09	7.76754
32.095	8.0862	32.095	7.72533
32.1	8.05656	32.1	7.69354
32.105	8.0342	32.105	7.66957
32.11	8.0173	32.11	7.65147
32.115	8.00448	32.115	7.63776
32.12	7.99474	32.12	7.62735
32.125	7.98729	32.125	7.61941
32.13	7.98157	32.13	7.61333
32.135	7.97715	32.135	7.60864
32.14	7.9737	32.14	7.60499
32.145	7.97097	32.145	7.60213
32.15	7.9688	32.15	7.59985
32.155	7.96703	32.155	7.59801
32.16	7.96556	32.16	7.5965
32.165	7.96433	32.165	7.59524
32.17	7.96328	32.17	7.59417
32.175	7.96235	32.175	7.59324
32.18	7.96152	32.18	7.59241
32.185	7.96076	32.185	7.59165
32.19	7.96005	32.19	7.59096
32.195	7.95939	32.195	7.59031
32.2	7.33328	32.2	8.21518
32.205	9.77771	32.205	9.10034
32.21	9.33675	32.21	8.73648
32.215	8.38043	32.215	9.08896
32.22	8.28635	32.22	8.72994
32.225	8.21567	32.225	8.46056
32.23	8.16255	32.23	8.25842
32.235	8.12259	32.235	8.1067
32.24	8.0925	32.24	7.99281
32.245	8.06982	32.245	7.90728
32.25	8.05269	32.25	7.84302
32.255	8.03973	32.255	7.79472
32.26	8.02989	32.26	7.75838
32.265	8.02239	32.265	7.73102
32.27	8.01665	32.27	7.71039
32.275	8.01223	32.275	7.69481
32.28	8.0088	32.28	7.68301
32.285	8.00611	32.285	7.67406
32.29	8.00397	32.29	7.66723
32.295	8.00226	32.295	7.662
32.3	8.00085	32.3	7.65797
32.305	7.99968	32.305	7.65484
32.31	7.99869	32.31	7.65238
32.315	7.99782	32.315	7.65043
32.32	7.99706	32.32	7.64886
32.325	7.99637	32.325	7.64757
32.33	7.99574	32.33	7.64649
32.335	7.99514	32.335	7.64558
32.34	7.99458	32.34	7.64478
32.345	7.99404	32.345	7.64407
32.35	7.99352	32.35	7.64344
32.355	7.99302	32.355	7.64285
32.36	7.99252	32.36	7.6423
32.365	7.99203	32.365	7.64178
32.37	7.99155	32.37	7.64128
32.375	7.99107	32.375	7.64079
32.38	9.65599	32.38	9.30572
32.385	9.25369	32.385	8.90343
32.39	8.95187	32.39	8.60162
32.395	8.7254	32.395	8.37517
32.4	8.55546	32.4	8.20525
32.405	8.4279	32.405	8.07772
32.41	8.33213	32.41	7.98198
32.415	8.26021	32.415	7.91008
32.42	8.20617	32.42	7.85607
32.425	8.16555	32.425	7.81547
32.43	8.13498	32.43	7.78494
32.435	8.11195	32.435	7.76194
32.44	8.09459	32.44	7.74461
32.445	8.08147	32.445	7.73152
32.45	8.07153	32.45	7.72161
32.455	8.06398	32.455	7.71409
32.46	7.67127	32.46	8.0953
32.465	7.75851	32.465	7.99926
32.47	7.82384	32.47	7.92714
32.475	7.87274	32.475	7.87295
32.48	7.90931	32.48	7.83223
32.485	7.93665	32.485	7.80159
32.49	7.95705	32.49	7.77853
32.495	7.97226	32.495	7.76114
32.5	7.98357	32.5	7.74801
32.505	7.99195	32.505	7.73807
32.51	7.99814	32.51	7.73052
32.515	8.00268	32.515	7.72478
32.52	8.00599	32.52	7.72038
32.525	8.00838	32.525	7.71698
32.53	8.01007	32.53	7.71435
32.535	8.01124	32.535	7.71229
32.54	7.62507	32.54	8.0976
32.545	9.38261	32.545	9.67002
32.55	9.0498	32.55	9.19837
32.555	8.80011	32.555	8.84457
32.56	8.61276	32.56	8.57914
32.565	8.47217	32.565	8.38
32.57	8.36665	32.57	8.23058
32.575	8.28744	32.575	8.11844
32.58	8.22794	32.58	8.03426
32.585	8.18325	32.585	7.97106
32.59	8.14964	32.59	7.92359
32.595	8.12437	32.595	7.88791
32.6	8.10533	32.6	7.86108
32.605	8.09097	32.605	7.84089
32.61	8.08894	32.61	7.81686
