time (s) - Front Motor	Motor Voltage (V) - Front Motor	time (s) - Back Motor	Motor Voltage (V) - Back Motor
0	519.962	0	523.977
0.005	394.226	0.005	398.242
0.01	299.302	0.01	304.57
0.015	228.735	0.015	233.697
0.02	175.814	0.02	180.547
0.025	135.74	0.025	141.075
0.03	106.07	0.03	111.093
0.035	83.8205	0.035	88.6104
0.04	67.1373	0.04	71.7527
0.045	54.6285	0.045	59.1135
0.05	45.2505	0.05	49.638
0.055	38.6076	0.055	42.1486
0.06	33.2471	0.06	36.9174
0.065	27.5649	0.065	31.3326
0.07	24.9578	0.07	28.799
0.075	23.006	0.075	26.9028
0.08	21.5457	0.08	25.4846
0.085	20.4541	0.085	24.425
0.09	17.9736	0.09	21.9689
0.095	17.7677	0.095	21.7818
0.1	17.6168	0.1	21.6454
0.105	17.5071	0.105	21.5471
0.11	17.4285	0.11	21.4774
0.115	15.7077	0.115	19.7637
0.12	16.0715	0.12	20.1333
0.125	16.3479	0.125	20.4145
0.13	17.1842	0.13	20.0039
0.135	15.2878	0.135	18.8963
0.14	16.3868	0.14	18.8536
0.145	14.3004	0.145	18.4089
0.15	15.6388	0.15	18.4814
0.155	14.3574	0.155	17.4977
0.16	15.0507	0.16	18.4147
0.165	15.5742	0.165	19.1063
0.17	14.3049	0.17	17.9636
0.175	15.3942	0.175	18.3744
0.18	14.1674	0.18	17.4028
0.185	13.2363	0.185	16.6636
0.19	13.1523	0.19	15.473
0.195	14.1204	0.195	16.8581
0.2	13.1844	0.2	16.2353
0.205	13.0968	0.205	15.1321
0.21	13.8236	0.21	16.8212
0.215	13.5735	0.215	15.5595
0.22	12.7515	0.22	15.2259
0.225	12.1239	0.225	14.9648
0.23	11.642	0.23	14.7583
0.235	12.2817	0.235	13.5802
0.24	11.7452	0.24	13.691
0.245	10.0531	0.245	11.7109
0.25	10.6673	0.25	11.6223
0.255	9.86782	0.255	12.7937
0.26	9.85269	0.26	9.73479
0.265	9.61394	0.265	10.9475
0.27	9.90344	0.27	11.3662
0.275	8.58931	0.275	9.85823
0.28	9.48678	0.28	10.1236
0.285	10.952	0.285	12.8387
0.29	9.35156	0.29	10.9194
0.295	8.75578	0.295	8.82383
0.3	8.94317	0.3	9.89705
0.305	8.41919	0.305	8.01301
0.31	9.04732	0.31	8.85791
0.315	9.12494	0.315	9.86226
0.32	8.90551	0.32	7.53955
0.325	7.71472	0.325	6.77183
0.33	8.07895	0.33	8.21752
0.335	7.44889	0.335	6.85119
0.34	8.47724	0.34	7.60425
0.345	7.335	0.345	6.72862
0.35	6.45708	0.35	6.04091
0.355	7.68129	0.355	6.92097
0.36	6.68586	0.36	6.14049
0.365	7.58334	0.365	7.18945
0.37	8.87509	0.37	7.3341
0.375	6.92288	0.375	7.00932
0.38	3.08926	0.38	-0.909731
0.385	5.18728	0.385	1.36113
0.39	4.31957	0.39	2.15092
0.395	0.432271	0.395	-4.06547
0.4	1.06082	0.4	-2.41949
0.405	-0.807833	0.405	-5.55968
0.41	1.73095	0.41	-1.97402
0.415	1.96236	0.415	-0.967208
0.42	2.50104	0.42	-0.630629
0.425	2.50131	0.425	-0.0279486
0.43	2.21359	0.43	-2.67237
0.435	3.90512	0.435	0.0158966
0.44	4.77935	0.44	2.40181
0.445	3.25249	0.445	-0.31256
0.45	4.63785	0.45	1.69987
0.455	2.72544	0.455	-0.525871
0.46	2.92498	0.46	-0.581256
0.465	4.336	0.465	1.39254
0.47	5.6251	0.47	2.61691
0.475	4.29048	0.475	2.48068
0.48	5.70147	0.48	3.24309
0.485	3.42624	0.485	0.461505
0.49	4.24497	0.49	2.42833
0.495	5.61999	0.495	3.11705
0.5	4.59613	0.5	2.33243
0.505	5.47123	0.505	3.37721
0.51	6.11964	0.51	4.14312
0.515	4.04111	0.515	0.595177
0.52	5.63776	0.52	1.3565
0.525	4.53856	0.525	0.867603
0.53	4.07856	0.53	0.0816685
0.535	3.3291	0.535	-0.158268
0.54	4.40977	0.54	1.29479
0.545	5.21213	0.545	2.36667
0.55	4.14033	0.55	1.48727
0.555	4.97918	0.555	2.46065
0.56	3.93469	0.56	1.5073
0.565	3.75404	0.565	0.134287
0.57	5.02483	0.57	0.973687
0.575	2.25694	0.575	-1.36377
0.58	3.47443	0.58	0.166788
0.585	4.37916	0.585	1.29655
0.59	5.43624	0.59	1.73875
0.595	4.17335	0.595	0.768681
0.6	4.86861	0.6	1.67379
0.605	3.21161	0.605	-2.15727
0.61	2.4511	0.61	-2.26688
0.615	1.59161	0.615	-5.44671
0.62	0.800792	0.62	-4.43965
0.625	-0.325147	0.625	-6.53846
0.63	1.35972	0.63	-4.06555
0.635	-0.329241	0.635	-5.94713
0.64	1.31515	0.64	-3.69324
0.645	2.5396	0.645	-2.02142
0.65	3.44909	0.65	-0.786166
0.655	4.12234	0.655	0.121636
0.66	4.61838	0.66	0.783834
0.665	2.81155	0.665	-3.22983
0.67	3.60364	0.67	-1.81142
0.675	4.18873	0.675	-0.766365
0.68	4.61854	0.68	-0.00134297
0.685	4.93187	0.685	0.553635
0.69	5.15782	0.69	0.95106
0.695	4.03977	0.695	-0.822041
0.7	4.46115	0.7	-0.137974
0.705	1.43728	0.705	-2.9746
0.71	2.46198	0.71	-1.81923
0.715	3.22131	0.715	-0.97166
0.72	3.78158	0.72	-0.354964
0.725	4.19256	0.725	0.0885586
0.73	4.49153	0.73	0.402182
0.735	3.81498	0.735	-1.82093
0.74	4.57236	0.74	-1.47966
0.745	4.7492	0.745	-0.86094
0.75	4.87248	0.75	-0.416014
0.755	4.95557	0.755	-0.101453
0.76	5.00849	0.76	0.115315
0.765	3.76033	0.765	-1.79363
0.77	4.47073	0.77	-1.59873
0.775	6.2776	0.775	0.575476
0.78	4.30699	0.78	-1.12939
0.785	4.47042	0.785	-0.776414
0.79	6.24887	0.79	1.13443
0.795	4.25689	0.795	-0.768018
0.8	4.40424	0.8	-0.563285
0.805	3.22671	0.805	-2.48142
0.81	3.60298	0.81	-1.90665
0.815	3.87554	0.815	-1.49498
0.82	4.84419	0.82	-1.97953
0.825	4.79727	0.825	-1.59866
0.83	4.75239	0.83	-1.33247
0.835	3.43056	0.835	-3.20464
0.84	5.36386	0.84	-0.930137
0.845	5.15318	0.845	-0.894668
0.85	2.4285	0.85	-4.99229
0.855	4.96556	0.855	-2.74113
0.86	4.43882	0.86	-1.95444
0.865	3.13732	0.865	-3.81824
0.87	3.42034	0.87	-3.20299
0.875	5.2881	0.875	-1.09582
0.88	2.47121	0.88	-5.2907
0.885	4.55203	0.885	-2.72567
0.89	3.56029	0.89	-4.91181
0.895	5.35903	0.895	-2.49116
0.9	4.66025	0.9	-1.95938
0.905	5.2819	0.905	-2.7361
0.91	4.97436	0.91	-2.57471
0.915	6.39904	0.915	-0.80809
0.92	5.8066	0.92	-1.15385
0.925	5.35219	0.925	-1.433
0.93	6.66668	0.93	0.00315975
0.935	4.32615	0.935	-2.25587
0.94	5.87691	0.94	-0.653751
0.945	5.37895	0.945	-1.12296
0.95	5.38227	0.95	-1.88173
0.955	4.99272	0.955	-2.08888
0.96	5.0773	0.96	-2.65115
0.965	6.41406	0.965	-1.04557
0.97	5.75552	0.97	-1.51225
0.975	5.63833	0.975	-2.2692
0.98	6.82371	0.98	-0.809674
0.985	5.66466	0.985	-0.998989
0.99	5.55391	0.99	-1.92982
0.995	6.74408	0.995	-0.600739
1	5.97553	1	-1.27487
1.005	7.0542	1.005	-0.135151
1.01	6.202	1.01	-0.951326
1.015	7.21792	1.015	0.0818474
1.02	6.31864	1.02	-0.814258
1.025	7.29922	1.025	0.158948
1.03	6.37342	1.03	-0.782152
1.035	5.6687	1.035	-1.50811
1.04	6.79516	1.04	-0.407328
1.045	5.97874	1.045	-1.25279
1.05	7.0214	1.05	-0.241652
1.055	6.14211	1.055	-1.15436
1.06	7.52455	1.06	-0.580636
1.065	6.13125	1.065	-1.05261
1.07	7.1231	1.07	-0.143265
1.075	8.49652	1.075	-0.0924418
1.08	8.52043	1.08	0.950191
1.085	7.25889	1.085	-0.320802
1.09	7.96767	1.09	0.371123
1.095	6.83789	1.095	-0.781055
1.1	7.64548	1.1	-3.76E-05
1.105	8.25519	1.105	0.579982
1.11	7.0511	1.11	-0.656143
1.115	7.41598	1.115	0.448841
1.12	6.79705	1.12	-1.16239
1.125	7.84441	1.125	-0.582375
1.13	8.00555	1.13	0.475211
1.135	8.51226	1.135	0.880752
1.14	7.23088	1.14	-0.486272
1.145	7.53775	1.145	0.520499
1.15	8.15374	1.15	0.88791
1.155	8.6197	1.155	1.15767
1.16	9.21166	1.16	1.11565
1.165	7.36585	1.165	0.0412903
1.17	7.63125	1.17	0.885674
1.175	8.21611	1.175	1.13127
1.18	8.27176	1.18	1.6966
1.185	8.31236	1.185	2.11985
1.19	8.72862	1.19	2.04961
1.195	9.2833	1.195	1.75257
1.2	7.40951	1.2	0.48692
1.205	7.6539	1.205	1.18782
1.21	7.83604	1.21	1.71273
1.215	8.59698	1.215	1.48018
1.22	8.54326	1.22	1.92827
1.225	8.50181	1.225	2.26358
1.23	8.46958	1.23	2.5143
1.235	8.44425	1.235	2.70158
1.24	9.04958	1.24	2.21579
1.245	8.87916	1.245	2.47397
1.25	8.75019	1.25	2.66683
1.255	8.26537	1.255	3.19767
1.26	8.28246	1.26	3.21317
1.265	8.91962	1.265	2.59855
1.27	8.77306	1.27	2.76009
1.275	8.27504	1.275	3.26744
1.28	8.28225	1.28	3.26531
1.285	8.52503	1.285	3.02442
1.29	8.46457	1.29	3.0844
1.295	8.03112	1.295	3.51556
1.3	8.71224	1.3	2.83083
1.305	8.2117	1.305	3.32673
1.31	8.21702	1.31	3.31602
1.315	8.4584	1.315	3.0687
1.32	8.00993	1.32	3.51079
1.325	8.05429	1.325	3.45973
1.33	7.93801	1.33	3.56908
1.335	9.6555	1.335	5.17526
1.34	8.90466	1.34	5.1152
1.345	8.57385	1.345	4.83596
1.35	8.46508	1.35	4.48532
1.355	9.51241	1.355	6.42235
1.36	9.40676	1.36	5.46264
1.365	8.69807	1.365	5.37048
1.37	9.91589	1.37	6.88098
1.375	9.07124	1.375	6.46828
1.38	7.89623	1.38	6.69848
1.385	8.15661	1.385	5.7277
1.39	7.72246	1.39	5.62725
1.395	8.90767	1.395	7.37008
1.4	8.28	1.4	6.89024
1.405	8.42859	1.405	5.90926
1.41	8.6537	1.41	8.38889
1.415	8.69519	1.415	7.07244
1.42	7.70997	1.42	7.09973
1.425	8.86378	1.425	8.55653
1.43	7.82566	1.43	8.24915
1.435	8.04831	1.435	7.01569
1.44	9.10291	1.44	8.53209
1.445	7.9904	1.445	8.26942
1.45	7.77034	1.45	7.45646
1.455	8.72638	1.455	9.05479
1.46	7.68042	1.46	8.71314
1.465	7.89725	1.465	7.454
1.47	8.56057	1.47	9.33813
1.475	7.53651	1.475	8.96942
1.48	9.04823	1.48	9.74235
1.485	7.74834	1.485	9.45242
1.49	7.52827	1.49	8.47859
1.495	7.11579	1.495	7.99411
1.5	7.78204	1.5	9.98441
1.505	7.52616	1.505	8.92943
1.51	8.3653	1.51	10.4364
1.515	8.70127	1.515	11.8876
1.52	8.19773	1.52	10.4284
1.525	7.78044	1.525	12.7029
1.53	9.1411	1.53	12.7628
1.535	8.50191	1.535	11.1643
1.54	8.75683	1.54	12.5606
1.545	8.19255	1.545	11.0602
1.55	7.13511	1.55	10.5678
1.555	8.3251	1.555	11.5449
1.56	7.21341	1.56	10.9789
1.565	8.74969	1.565	11.5139
1.57	7.51586	1.57	10.9982
1.575	7.20504	1.575	9.99558
1.58	8.09325	1.58	11.4519
1.585	7.62215	1.585	10.3784
1.59	9.31247	1.59	10.8593
1.595	8.6289	1.595	9.86829
1.6	7.38112	1.6	9.85901
1.605	8.72529	1.605	10.9017
1.61	8.55094	1.61	9.56329
1.615	9.59411	1.615	10.7152
1.62	8.47843	1.62	10.1744
1.625	8.35152	1.625	9.05785
1.63	9.4303	1.63	10.3762
1.635	8.96683	1.635	9.3347
1.64	8.08035	1.64	9.09143
1.645	7.54735	1.645	8.77608
1.65	7.52594	1.65	8.16019
1.655	9.4103	1.655	9.12763
1.66	8.92777	1.66	8.44622
1.665	9.93095	1.665	9.8999
1.67	9.30988	1.67	9.06086
1.675	9.31768	1.675	7.95703
1.68	8.83724	1.68	7.61449
1.685	8.71197	1.685	7.12157
1.69	10.0385	1.69	8.66119
1.695	9.37914	1.695	8.16755
1.7	9.35821	1.7	7.32278
1.705	9.24319	1.705	6.78759
1.71	8.38468	1.71	7.15754
1.715	8.11922	1.715	7.05566
1.72	9.19513	1.72	9.03412
1.725	8.72962	1.725	8.48775
1.73	9.24108	1.73	7.2165
1.735	8.75658	1.735	7.13028
1.74	8.62833	1.74	6.82962
1.745	8.28731	1.745	6.84807
1.75	8.02814	1.75	6.86444
1.755	8.06888	1.755	6.64071
1.76	7.85462	1.76	6.71686
1.765	7.69052	1.765	6.7765
1.77	9.85491	1.77	7.86368
1.775	9.20065	1.775	7.65399
1.78	8.70658	1.78	7.49926
1.785	8.8097	1.785	6.9087
1.79	8.40085	1.79	6.95113
1.795	8.32936	1.795	6.74697
1.8	8.03096	1.8	6.83779
1.805	7.80378	1.805	6.90844
1.81	7.86855	1.81	6.72544
1.815	7.67235	1.815	6.83213
1.82	7.52182	1.82	6.91468
1.825	9.30948	1.825	8.40599
1.83	8.75458	1.83	8.11754
1.835	8.33505	1.835	7.90375
1.84	7.86864	1.84	7.89437
1.845	8.28142	1.845	7.12394
1.85	8.44146	1.85	6.69487
1.855	7.68838	1.855	7.24537
1.86	6.87661	1.86	7.9044
1.865	7.99027	1.865	6.6754
1.87	7.0906	1.87	7.48775
1.875	9.32666	1.875	8.5162
1.88	8.33928	1.88	8.64941
1.885	7.97729	1.885	8.37001
1.89	8.32797	1.89	7.53753
1.895	8.44145	1.895	7.06193
1.9	8.04044	1.9	7.19059
1.905	7.97491	1.905	7.0511
1.91	7.68104	1.91	7.19043
1.915	6.44491	1.915	8.3099
1.92	7.38365	1.92	7.2829
1.925	6.59425	1.925	8.00535
1.93	6.62216	1.93	7.92645
1.935	7.50381	1.935	7.00581
1.94	6.28464	1.94	8.19497
1.945	6.3721	1.945	8.08424
1.95	6.67292	1.95	7.76519
1.955	8.31924	1.955	9.43525
1.96	7.8998	1.96	9.03945
1.965	8.05902	1.965	8.26809
1.97	7.69234	1.97	8.17493
1.975	7.6526	1.975	7.86907
1.98	7.37811	1.98	7.88363
1.985	7.16897	1.985	7.8971
1.99	7.24739	1.99	7.67121
1.995	7.06152	1.995	7.74574
2	6.91886	2	7.80418
2.005	7.04713	2.005	7.61202
2.01	6.89867	2.01	7.71184
2.015	6.39711	2.015	8.17619
2.02	6.63808	2.02	7.9066
2.025	8.23953	2.025	9.61373
2.03	7.78649	2.03	9.24575
2.035	8.06896	2.035	8.34683
2.04	7.6543	2.04	8.29847
2.045	7.34007	2.045	8.26474
2.05	7.72664	2.05	7.61651
2.055	7.39006	2.055	7.75616
2.06	7.1344	2.06	7.86345
2.065	7.17796	2.065	7.70792
2.07	6.96599	2.07	7.83522
2.075	7.28086	2.075	7.45617
2.08	7.03096	2.08	7.65724
2.085	6.84032	2.085	7.81058
2.09	9.22353	2.09	8.7295
2.095	8.49216	2.095	8.63503
2.1	7.94044	2.1	8.56673
2.105	8.14892	2.105	7.89258
2.11	7.67882	2.11	8.01278
2.115	8.18706	2.115	7.24147
2.12	7.70037	2.12	7.53021
2.125	7.57069	2.125	7.51078
2.13	7.22884	2.13	7.74015
2.135	7.3562	2.135	7.52778
2.14	8.97061	2.14	9.17976
2.145	8.28594	2.145	9.01183
2.15	7.76927	2.15	8.88843
2.155	8.24263	2.155	7.93443
2.16	7.49126	2.16	8.32469
2.165	7.79147	2.165	7.75305
2.17	7.39018	2.17	7.95014
2.175	7.47301	2.175	7.71357
2.18	7.15011	2.18	7.92055
2.185	7.53025	2.185	7.45286
2.19	7.18893	2.19	7.7279
2.195	7.55527	2.195	7.31125
2.2	8.86899	2.2	9.28998
2.205	8.20026	2.205	9.12569
2.21	8.5596	2.21	8.14102
2.215	7.33581	2.215	8.89524
2.22	7.42506	2.22	8.45324
2.225	7.34553	2.225	8.26763
2.23	7.42831	2.23	7.98543
2.235	7.49234	2.235	7.77126
2.24	7.15538	2.24	7.99505
2.245	6.89953	2.245	8.16544
2.25	7.09147	2.25	7.90884
2.255	7.47592	2.255	7.47533
2.26	7.13787	2.26	7.77601
2.265	9.17209	2.265	9.04399
2.27	8.80744	2.27	8.58297
2.275	8.14899	2.275	8.62163
2.28	7.65205	2.28	8.65319
2.285	7.27626	2.285	8.67942
2.29	7.37827	2.29	8.31471
2.295	7.6953	2.295	7.80012
2.3	7.3067	2.3	8.04001
2.305	6.77364	2.305	8.46102
2.31	7.23764	2.31	7.91244
2.315	7.34622	2.315	7.73989
2.32	7.42966	2.32	7.60795
2.325	9.01121	2.325	9.32027
2.33	8.68896	2.33	8.81065
2.335	8.06234	2.335	8.81288
2.34	8.60174	2.34	7.80468
2.345	7.9981	2.345	8.05624
2.35	7.30377	2.35	8.48601
2.355	8.27233	2.355	7.31853
2.36	8.13609	2.36	7.30509
2.365	7.02352	2.365	8.30491
2.37	7.82173	2.37	7.42164
2.375	7.79914	2.375	7.37994
2.38	9.06268	2.38	9.39848
2.385	8.74335	2.385	8.87713
2.39	8.11896	2.39	8.87055
2.395	8.66007	2.395	7.85577
2.4	8.05773	2.4	8.10239
2.405	7.98989	2.405	7.90298
2.41	8.56655	2.41	7.12544
2.415	7.99088	2.415	7.54999
2.42	7.31757	2.42	8.1095
2.425	7.67645	2.425	7.66481
2.43	7.70626	2.43	7.57019
2.435	7.1052	2.435	8.12219
2.44	7.51827	2.44	7.67187
2.445	6.96325	2.445	8.19849
2.45	7.17231	2.45	7.96767
2.455	9.23511	2.455	9.2189
2.46	8.26651	2.46	9.37082
2.465	8.16541	2.465	8.85898
2.47	8.71716	2.47	7.84712
2.475	8.50978	2.475	7.70899
2.48	7.73085	2.48	8.22837
2.485	7.77202	2.485	7.99213
2.49	7.41804	2.49	8.19938
2.495	6.91102	2.495	8.59594
2.5	7.78161	2.5	7.64209
2.505	7.81336	2.505	7.54747
2.51	6.82685	2.51	8.48642
2.515	7.71967	2.515	7.5575
2.52	7.38116	2.52	7.86852
2.525	6.88576	2.525	8.34289
2.53	7.76506	2.53	7.4474
2.535	7.17788	2.535	8.02202
2.54	7.98834	2.54	7.20172
2.545	9.01493	2.545	9.49812
2.55	8.75938	2.55	8.94376
2.555	8.56983	2.555	8.52549
2.56	8.42978	2.56	8.20929
2.565	8.32687	2.565	7.96964
2.57	8.87729	2.57	7.16192
2.575	8.04348	2.575	7.80238
2.58	8.669	2.58	7.03147
2.585	7.89151	2.585	7.69953
2.59	7.54684	2.59	7.96175
2.595	7.67234	2.595	7.77404
2.6	7.14311	2.6	8.25623
2.605	7.37158	2.605	7.9921
2.61	7.15812	2.61	8.17843
2.615	7.76897	2.615	7.54686
2.62	7.84737	2.62	7.45254
2.625	7.9083	2.625	7.37929
2.63	7.33065	2.63	7.94732
2.635	7.52282	2.635	7.74755
2.64	7.66908	2.64	7.59522
2.645	9.44631	2.645	9.14385
2.65	9.13049	2.65	8.65193
2.655	8.65725	2.655	8.51904
2.66	8.54588	2.66	8.17546
2.665	9.09	2.665	7.28979
2.67	8.25149	2.67	7.8718
2.675	8.24803	2.675	7.68253
2.68	7.86066	2.68	7.92503
2.685	7.95415	2.685	7.72254
2.69	7.40095	2.69	8.19364
2.695	7.61149	2.695	7.9212
2.7	7.77155	2.7	7.71436
2.705	8.28071	2.705	7.16978
2.71	7.27045	2.71	8.15313
2.715	7.90701	2.715	7.49606
2.72	7.37924	2.72	8.00809
2.725	7.60886	2.725	7.76634
2.73	7.78324	2.73	7.58251
2.735	7.91619	2.735	7.44214
2.74	7.39259	2.74	7.95983
2.745	7.62533	2.745	7.72231
2.75	7.80205	2.75	7.54167
2.755	8.97668	2.755	9.69455
2.76	9.21917	2.76	8.64561
2.765	9.02136	2.765	8.23827
2.77	8.8752	2.77	7.93028
2.775	8.76777	2.775	7.69679
2.78	8.06391	2.78	8.14465
2.785	7.536	2.785	8.48026
2.79	7.76553	2.79	8.1062
2.795	7.93987	2.795	7.82316
2.8	8.07283	2.8	7.60838
2.805	7.54926	2.805	8.07028
2.81	8.79448	2.81	6.77851
2.815	8.09997	2.815	7.43779
2.82	8.20456	2.82	7.30649
2.825	7.65972	2.825	7.83098
2.83	7.87657	2.83	7.59858
2.835	7.41592	2.835	8.04726
2.84	7.6959	2.84	7.75799
2.845	7.90809	2.845	7.53854
2.85	7.44396	2.85	7.99693
2.855	8.10828	2.855	7.32799
2.86	7.60137	2.86	7.83113
2.865	7.84667	2.865	7.58271
2.87	7.40737	2.87	8.01936
2.875	7.70337	2.875	7.72108
2.88	7.30209	2.88	8.12034
2.885	7.62661	2.885	7.794
2.89	8.25915	2.89	7.15979
2.895	7.72842	2.895	7.68897
2.9	7.95585	2.9	7.46008
2.905	7.50315	2.905	7.91138
2.91	7.7891	2.91	7.62407
2.915	7.3803	2.915	8.03156
2.92	7.69918	2.92	7.71139
2.925	7.94054	2.925	7.46875
2.93	7.88524	2.93	7.52279
2.935	7.46191	2.935	7.94489
2.94	7.76989	2.94	7.63567
2.945	8.00309	2.945	7.40124
2.95	7.55472	2.95	7.84839
2.955	7.84392	2.955	7.55796
2.96	7.82451	2.96	7.57616
2.965	7.42809	2.965	7.97136
2.97	7.75626	2.97	7.64198
2.975	7.37912	2.975	8.0179
2.98	7.72175	2.98	7.67406
2.985	8.36789	2.985	7.02671
2.99	7.84736	2.99	7.54602
2.995	8.08246	2.995	7.30972
3	7.63551	3	7.75545
3.005	8.31274	3.005	7.07701
3.01	7.81554	3.01	7.57301
3.015	7.44264	3.015	7.94469
3.02	9.45386	3.02	9.26306
3.025	9.31362	3.025	8.59843
3.03	8.97214	3.03	8.336
3.035	8.95968	3.035	7.89526
3.04	8.32709	3.04	8.18769
3.045	8.23963	3.045	8.01976
3.05	8.41769	3.05	7.6499
3.055	8.55347	3.055	7.37001
3.06	8.03206	3.06	7.78306
3.065	8.65347	3.065	7.08012
3.07	8.11443	3.07	7.55776
3.075	8.33566	3.075	7.2902
3.08	7.87834	3.08	7.71251
3.085	8.54782	3.085	7.01651
3.09	8.04483	3.09	7.49935
3.095	7.90616	3.095	7.62265
3.1	7.94773	3.1	7.56928
3.105	8.22256	3.105	7.28533
3.11	8.1924	3.11	7.30839
3.115	7.78795	3.115	7.70725
3.12	8.11014	3.12	7.38061
3.125	8.11549	3.125	7.37166
3.13	7.73768	3.13	7.7465
3.135	8.07984	3.135	7.40185
3.14	7.71323	3.14	7.76633
3.145	7.43831	3.145	8.03938
3.15	7.85764	3.15	7.61838
3.155	7.54891	3.155	7.9256
3.16	7.31741	3.16	8.15571
3.165	7.7693	3.165	7.70251
3.17	7.48499	3.17	7.98557
3.175	7.65875	3.175	7.81061
3.18	7.40724	3.18	8.06095
3.185	7.84414	3.185	7.62292
3.19	8.17406	3.19	7.29188
3.195	8.18522	3.195	7.27962
3.2	7.81177	3.2	7.65198
3.205	8.15721	3.205	7.30546
3.21	7.79306	3.21	7.66853
3.215	7.52	3.215	7.94052
3.22	7.31524	3.22	8.14421
3.225	8.17415	3.225	7.28424
3.23	7.81324	3.23	7.64408
3.235	7.5426	3.235	7.91366
3.24	7.96515	3.24	7.49005
3.245	7.65884	3.245	7.7953
3.25	7.8161	3.25	7.63698
3.255	7.55223	3.255	7.8998
3.26	7.97985	3.26	7.47112
3.265	7.67735	3.265	7.77257
3.27	7.45051	3.27	7.99834
3.275	7.28044	3.275	8.16736
3.28	7.77841	3.28	7.66833
3.285	7.52867	3.285	7.91701
3.29	8.35384	3.29	7.09079
3.295	7.96763	3.295	7.47594
3.3	8.06497	3.3	7.37754
3.305	8.38164	3.305	7.05982
3.31	7.99592	3.31	7.44448
3.315	7.70668	3.315	7.73266
3.32	7.48981	3.32	7.94848
3.325	7.95268	3.325	7.48455
3.33	8.06356	3.33	7.37261
3.335	7.76491	3.335	7.6702
3.34	7.54098	3.34	7.89308
3.345	7.99856	3.345	7.43444
3.35	8.10547	3.35	7.32647
3.355	7.80384	3.355	7.62704
3.36	7.57768	3.36	7.85216
3.365	8.03358	3.365	7.39519
3.37	7.7523	3.37	7.67542
3.375	7.54139	3.375	7.88527
3.38	7.38326	3.38	8.04235
3.385	7.65166	3.385	7.77288
3.39	7.47115	3.39	7.95234
3.395	7.96131	3.395	7.46112
3.4	7.70571	3.4	7.71567
3.405	7.90101	3.405	7.51931
3.41	7.66567	3.41	7.75359
3.415	7.48923	3.415	7.92898
3.42	7.98243	3.42	7.43472
3.425	7.72911	3.425	7.68698
3.43	7.53918	3.43	7.87585
3.435	7.78374	3.435	7.63024
3.44	9.25074	3.44	9.49297
3.445	9.32566	3.445	8.61335
3.45	8.75865	3.45	8.5766
3.455	8.72042	3.455	8.16179
3.46	8.30995	3.46	8.23224
3.465	8.00218	3.465	8.28478
3.47	8.39691	3.47	7.6984
3.475	8.45671	3.475	7.49464
3.48	8.11977	3.48	7.72339
3.485	7.86714	3.485	7.89464
3.49	8.06469	3.49	7.63583
3.495	7.83107	3.495	7.82328
3.5	8.28141	3.5	7.33809
3.505	7.99597	3.505	7.59716
3.51	7.78197	3.51	7.79116
3.515	7.62155	3.515	7.93636
3.52	7.88826	3.52	7.65801
3.525	7.7065	3.525	7.8308
3.53	8.58269	3.53	6.94767
3.535	8.23477	3.535	7.29015
3.54	7.97391	3.54	7.54671
3.545	7.77835	3.545	7.73882
3.55	8.0187	3.55	7.49565
3.555	7.81718	3.555	7.69484
3.56	8.2916	3.56	7.21844
3.565	8.02422	3.565	7.48411
3.57	8.21071	3.57	7.29611
3.575	7.9688	3.575	7.53667
3.58	7.78744	3.58	7.71678
3.585	7.6515	3.585	7.85156
3.59	8.17511	3.59	7.32686
3.595	7.94463	3.595	7.55629
3.6	7.77184	3.6	7.72807
3.605	7.64234	3.605	7.85659
3.61	7.54529	3.61	7.95267
3.615	7.85953	3.615	7.63748
3.62	7.71343	3.62	7.78265
3.625	7.99088	3.625	7.50427
3.63	7.81718	3.63	7.67704
3.635	7.68699	3.635	7.80632
3.64	7.58943	3.64	7.90296
3.645	8.52876	3.645	6.96272
3.65	8.22821	3.65	7.26236
3.655	8.00288	3.655	7.48678
3.66	7.83396	3.66	7.65479
3.665	8.0943	3.665	7.39355
3.67	7.90777	3.67	7.57917
3.675	7.76796	3.675	7.71808
3.68	7.66318	3.68	7.82195
3.685	7.58468	3.685	7.89955
3.69	8.15137	3.69	7.33196
3.695	7.95319	3.695	7.52923
3.7	8.19159	3.7	7.28993
3.705	7.98861	3.705	7.49201
3.71	7.83645	3.71	7.64326
3.715	8.10937	3.715	7.36944
3.72	7.93227	3.72	7.54563
3.725	7.79953	3.725	7.67747
3.73	7.70006	3.73	7.77604
3.735	7.62554	3.735	7.84966
3.74	7.56973	3.74	7.90456
3.745	7.91491	3.745	7.55848
3.75	7.79201	3.75	7.68048
3.755	7.69991	3.755	7.77167
3.76	7.63093	3.76	7.83975
3.765	7.57927	3.765	7.89051
3.77	7.54061	3.77	7.92826
3.775	9.17709	3.775	9.62167
3.78	9.14061	3.78	8.85359
3.785	8.73149	3.785	8.65911
3.79	9.05023	3.79	7.88748
3.795	8.66612	3.795	7.93174
3.8	7.75265	3.8	8.59012
3.805	8.31641	3.805	7.83487
3.81	8.11606	3.81	7.89141
3.815	7.72737	3.815	8.17206
3.82	8.30284	3.82	7.51536
3.825	8.11127	3.825	7.64583
3.83	7.9677	3.83	7.74339
3.835	8.24707	3.835	7.42932
3.84	7.68789	3.84	7.96228
3.845	8.03742	3.845	7.59291
3.85	7.9178	3.85	7.69745
3.855	7.8282	3.855	7.77557
3.86	7.76109	3.86	7.83386
3.865	7.71087	3.865	7.8773
3.87	7.67331	3.87	7.90958
3.875	7.64524	3.875	7.9335
3.88	7.62429	3.88	7.95115
3.885	7.99562	3.885	7.57715
3.89	7.50542	3.89	8.06517
3.895	7.90668	3.895	7.66209
3.9	8.21281	3.9	7.3544
3.905	8.06065	3.905	7.50521
3.91	7.55968	3.91	8.00497
3.915	7.95287	3.915	7.61069
3.92	7.866	3.92	7.69656
3.925	7.80095	3.925	7.76066
3.93	7.75227	3.93	7.80845
3.935	8.1028	3.935	7.45706
3.94	7.98395	3.94	7.57509
3.945	7.8949	3.945	7.66332
3.95	7.82823	3.95	7.7292
3.955	7.77832	3.955	7.77832
3.96	7.741	3.96	7.81487
3.965	8.10005	3.965	7.45505
3.97	7.98758	3.97	7.56675
3.975	7.90333	3.975	7.65024
3.98	7.84025	3.98	7.71257
3.985	7.79304	3.985	7.75902
3.99	7.75773	3.99	7.79357
3.995	8.11831	3.995	7.43225
4	8.00697	4	7.54283
4.005	7.92358	4.005	7.62547
4.01	7.86113	4.01	7.68716
4.015	8.20135	4.015	7.3462
4.02	8.07475	4.02	7.47204
4.025	7.9799	4.025	7.56614
4.03	8.29582	4.03	7.24948
4.035	8.15099	4.035	7.39355
4.04	8.04248	4.04	7.50132
4.045	7.96119	4.045	7.58185
4.05	7.90033	4.05	7.64196
4.055	8.24174	4.055	7.29981
4.06	8.11603	4.06	7.42476
4.065	8.02185	4.065	7.51819
4.07	7.95132	4.07	7.58797
4.075	7.89853	4.075	7.64002
4.08	7.23355	4.08	8.30424
4.085	7.3582	4.085	8.17884
4.09	7.45178	4.09	8.08451
4.095	7.90902	4.095	7.62652
4.1	7.87019	4.1	7.6646
4.105	7.84116	4.105	7.69288
4.11	8.20645	4.11	7.32685
4.115	8.09864	4.115	7.4339
4.12	8.01789	4.12	7.5139
4.125	7.95743	4.125	7.57361
4.13	7.91219	4.13	7.6181
4.135	8.26531	4.135	7.26423
4.14	8.14838	4.14	7.38041
4.145	8.06079	4.145	7.46725
4.15	7.9952	4.15	7.53209
4.155	7.94611	4.155	7.58043
4.16	7.90939	4.16	7.6164
4.165	8.2689	4.165	7.25614
4.17	8.15678	4.17	7.36752
4.175	8.07278	4.175	7.45076
4.18	8.00989	4.18	7.51291
4.185	7.33734	4.185	8.1847
4.19	8.08178	4.19	7.43951
4.195	8.01694	4.195	7.5036
4.2	7.72988	4.2	7.78991
4.205	7.7561	4.205	7.76295
4.21	7.77586	4.21	7.74244
4.215	7.79078	4.215	7.72676
4.22	8.18902	4.22	7.32777
4.225	8.10594	4.225	7.41011
4.23	8.04372	4.23	7.47157
4.235	7.99717	4.235	7.51738
4.24	7.96235	4.24	7.55144
4.245	8.32328	4.245	7.18976
4.25	8.21222	4.25	7.30007
4.255	8.12903	4.255	7.38252
4.26	7.44125	4.26	8.06954
4.265	7.54879	4.265	7.96125
4.27	8.01649	4.27	7.4928
4.275	7.98551	4.275	7.52304
4.28	7.96237	4.28	7.54543
4.285	7.94511	4.285	7.56193
4.29	7.93227	4.29	7.57403
4.295	7.92274	4.295	7.58281
4.3	8.30264	4.3	7.20216
4.305	8.2058	4.305	7.29825
4.31	8.13327	4.31	7.37003
4.315	8.07897	4.315	7.42357
4.32	7.79981	4.32	7.70198
4.325	7.83195	4.325	7.66909
4.33	7.85616	4.33	7.64414
4.335	7.87441	4.335	7.62514
4.34	7.8882	4.34	7.6106
4.345	7.89864	4.345	7.59941
4.35	7.90657	4.35	7.59073
4.355	7.91262	4.355	7.58393
4.36	8.3042	4.36	7.1916
4.365	8.21612	4.365	7.27893
4.37	8.15016	4.37	7.34414
4.375	8.10078	4.375	7.39276
4.38	8.06386	4.38	7.42894
4.385	7.41078	4.385	8.08127
4.39	7.93129	4.39	7.56001
4.395	7.9399	4.395	7.55064
4.4	7.94646	4.4	7.54333
4.405	7.95148	4.405	7.53757
4.41	7.95534	4.41	7.53295
4.415	7.95834	4.415	7.52921
4.42	8.34763	4.42	7.13917
4.425	7.63235	4.425	7.8537
4.43	7.71926	4.43	7.76604
4.435	7.78454	4.435	7.7
4.44	7.8336	4.44	7.6502
4.445	7.87049	4.445	7.61256
4.45	7.89826	4.45	7.58404
4.455	7.91918	4.455	7.56237
4.46	7.93497	4.46	7.54583
4.465	7.94691	4.465	7.53314
4.47	7.95596	4.47	7.52334
4.475	7.72431	4.475	7.75424
4.48	7.79208	4.48	7.68572
4.485	7.843	4.485	7.63405
4.49	7.88129	4.49	7.59501
4.495	7.9101	4.495	7.56545
4.5	8.31875	4.5	7.15604
4.505	8.24347	4.505	7.23057
4.51	8.18711	4.51	7.28618
4.515	7.51946	4.515	7.95309
4.52	7.64208	4.52	7.82972
4.525	7.73415	4.525	7.7369
4.53	7.80329	4.53	7.66701
4.535	7.85524	4.535	7.6143
4.54	7.89431	4.54	7.57449
4.545	7.9237	4.545	7.54435
4.55	7.94584	4.55	7.52146
4.555	7.96254	4.555	7.50401
4.56	7.97516	4.56	7.49064
4.565	7.35924	4.565	8.10581
4.57	7.90761	4.57	7.55669
4.575	7.93712	4.575	7.52643
4.58	7.95935	4.58	7.50345
4.585	7.97611	4.585	7.48594
4.59	7.98878	4.59	7.47252
4.595	7.99838	4.595	7.46217
4.6	8.00567	4.6	7.45413
4.605	8.01123	4.605	7.44782
4.61	8.0155	4.61	7.4428
4.615	7.39331	4.615	8.06424
4.62	7.93698	4.62	7.51981
4.625	7.96297	4.625	7.49308
4.63	7.98255	4.63	7.47275
4.635	7.99733	4.635	7.45722
4.64	8.00851	4.64	7.44529
4.645	8.01699	4.645	7.43606
4.65	8.02344	4.65	7.42886
4.655	7.40289	4.655	8.04866
4.66	7.56084	4.66	7.88996
4.665	7.6794	4.665	7.77065
4.67	7.76841	4.67	7.68089
4.675	7.83526	4.675	7.61328
4.68	7.88549	4.68	7.5623
4.685	8.31021	4.685	7.13684
4.69	8.24697	4.69	7.19933
4.695	8.19963	4.695	7.24592
4.7	7.53874	4.7	7.90606
4.705	7.66644	4.705	7.77761
4.71	7.7623	4.71	7.68099
4.715	7.83429	4.715	7.60825
4.72	7.88838	4.72	7.55342
4.725	7.92903	4.725	7.51202
4.73	7.95962	4.73	7.48068
4.735	7.98265	4.735	7.4569
4.74	8.00001	4.74	7.43879
4.745	7.77459	4.745	7.66346
4.75	7.46008	4.75	7.97722
4.755	7.99309	4.755	7.44346
4.76	8.01108	4.76	7.42472
4.765	8.02466	4.765	7.41038
4.77	7.40946	4.77	8.02484
4.775	8.1969	4.775	7.23665
4.78	7.53882	4.78	7.89398
4.785	7.66862	4.785	7.76343
4.79	7.76606	4.79	7.66524
4.795	8.22618	4.795	7.20437
4.8	8.18949	4.8	7.24031
4.805	8.16206	4.805	7.26699
4.81	8.14158	4.81	7.28672
4.815	7.50083	4.815	7.92672
4.82	7.64363	4.82	7.78317
4.825	7.75082	4.825	7.67523
4.83	7.8313	4.83	7.594
4.835	7.89175	4.835	7.5328
4.84	7.93717	4.84	7.48663
4.845	7.97133	4.845	7.45172
4.85	7.99704	4.85	7.42526
4.855	8.01641	4.855	7.40514
4.86	8.03102	4.86	7.38978
4.865	7.41659	4.865	8.00346
4.87	7.96608	4.87	7.45322
4.875	7.99641	4.875	7.42214
4.88	8.01925	4.88	7.39855
4.885	8.03647	4.885	7.38058
4.89	8.04947	4.89	7.36683
4.895	8.05931	4.895	7.35624
4.9	8.06678	4.9	7.34802
4.905	8.07247	4.905	7.34158
4.91	7.45134	4.91	7.96196
4.915	7.60886	4.915	7.8037
4.92	8.11403	4.92	7.29778
4.925	8.11112	4.925	7.29993
4.93	8.10903	4.93	7.30127
4.935	8.10756	4.935	7.302
4.94	8.10653	4.94	7.30227
4.945	8.10585	4.945	7.3022
4.95	7.47995	4.95	7.92735
4.955	7.63388	4.955	7.77267
4.96	7.74941	4.96	7.65639
4.965	7.83615	4.965	7.5689
4.97	7.90129	4.97	7.50301
4.975	7.95023	4.975	7.45332
4.98	7.98702	4.98	7.41578
4.985	7.38922	4.985	8.01284
4.99	7.95117	4.99	7.45013
4.995	7.99085	4.995	7.4097
5	21.17	5	20.5284
5.005	21.2099	5.005	20.5226
5.01	21.2443	5.01	20.5224
5.015	20.6491	5.015	21.1518
5.02	21.2173	5.02	20.6177
5.025	21.2661	5.025	20.6031
5.03	21.3071	5.03	20.5963
5.035	21.3423	5.035	20.5952
5.04	21.3732	5.04	20.5985
5.045	21.4008	5.045	20.6051
5.05	21.4259	5.05	20.6141
5.055	21.4492	5.055	20.6249
5.06	21.4711	5.06	20.6372
5.065	21.492	5.065	20.6504
5.07	21.5121	5.07	20.6645
5.075	20.9062	5.075	21.3046
5.08	21.0794	5.08	21.1655
5.085	21.2138	5.085	21.0653
5.09	19.6537	5.09	19.3288
5.095	20.1389	5.095	19.6814
5.1	20.5072	5.1	19.9499
5.105	20.7879	5.105	20.1554
5.11	21.0028	5.11	20.3136
5.115	21.1684	5.115	20.4363
5.12	21.2971	5.12	20.5324
5.125	21.398	5.125	20.6085
5.13	19.8127	5.13	19.0043
5.135	20.2791	5.135	19.4561
5.14	20.6332	5.14	19.799
5.145	21.2902	5.145	19.6733
5.15	19.7401	5.15	18.2995
5.155	20.2328	5.155	18.9241
5.16	20.6067	5.16	19.3966
5.165	20.8915	5.165	19.755
5.17	19.4441	5.17	18.3624
5.175	20.0138	5.175	18.9729
5.18	18.7801	5.18	17.7694
5.185	19.897	5.185	18.1347
5.19	18.6917	5.19	17.1292
5.195	19.443	5.195	18.0299
5.2	18.3454	5.2	17.044
5.205	17.512	5.205	16.294
5.21	18.5421	5.21	17.3864
5.215	17.6536	5.215	16.5442
5.22	18.6424	5.22	17.5674
5.225	17.7229	5.225	16.6733
5.23	17.41	5.23	15.6051
5.235	16.7831	5.235	15.1753
5.24	17.9681	5.24	16.5077
5.245	15.9172	5.245	13.7931
5.25	16.2632	5.25	13.1537
5.255	15.6506	5.255	13.5253
5.26	15.4221	5.26	13.5519
5.265	15.4789	5.265	13.3225
5.27	15.0312	5.27	13.6197
5.275	15.3134	5.275	13.2035
5.28	15.3712	5.28	13.0238
5.285	14.9242	5.285	13.3582
5.29	13.1544	5.29	11.6914
5.295	14.4799	5.295	11.0688
5.3	12.793	5.3	9.93076
5.305	13.1681	5.305	10.7172
5.31	13.8258	5.31	10.9091
5.315	12.2612	5.315	9.75855
5.32	12.7279	5.32	10.5355
5.325	12.8288	5.325	11.3457
5.33	11.4698	5.33	10.0356
5.335	13.3417	5.335	9.4418
5.34	12.2373	5.34	11.4829
5.345	8.27411	5.345	6.13433
5.35	10.0072	5.35	7.30073
5.355	7.19659	5.355	5.60234
5.36	9.1483	5.36	6.85024
5.365	10.2193	5.365	8.15674
5.37	6.01535	5.37	4.12911
5.375	7.80406	5.375	6.04968
5.38	9.13454	5.38	7.47869
5.385	6.79053	5.385	5.20823
5.39	8.32318	5.39	6.79569
5.395	9.46152	5.395	7.97478
5.4	8.6387	5.4	7.18217
5.405	9.0358	5.405	8.85253
5.41	10.3326	5.41	9.08349
5.415	7.58132	5.415	6.29619
5.42	7.14293	5.42	5.83045
5.425	8.4537	5.425	7.12034
5.43	6.09461	5.43	4.74524
5.435	7.61567	5.435	6.25394
5.44	8.35807	5.44	7.76061
5.445	5.95449	5.445	5.16615
5.45	7.44208	5.45	6.51022
5.455	6.88084	5.455	5.84099
5.46	6.43383	5.46	5.31264
5.465	5.44698	5.465	5.51538
5.47	6.58241	5.47	7.07001
5.475	2.80799	5.475	2.8459
5.48	3.63966	5.48	2.56606
5.485	5.52066	5.485	4.3768
5.49	1.29793	5.49	1.35199
5.495	3.308	5.495	3.78751
5.5	-3.14146	5.5	-3.10695
5.505	0.263899	5.505	-0.0357005
5.51	-3.20274	5.51	-1.72841
5.515	0.142991	5.515	0.937143
5.52	2.64016	5.52	2.92383
5.525	1.17009	5.525	1.07055
5.53	2.73163	5.53	3.5953
5.535	1.56999	5.535	1.13528
5.54	3.60639	5.54	2.96128
5.545	5.12139	5.545	4.31813
5.55	2.67598	5.55	2.23084
5.555	4.37274	5.555	3.71302
5.56	5.63291	5.56	4.81192
5.565	4.27474	5.565	4.58341
5.57	5.51781	5.57	5.42684
5.575	6.43764	5.575	6.04659
5.58	5.44962	5.58	4.83317
5.585	5.72148	5.585	6.1866
5.59	6.53608	5.59	6.5655
5.595	2.13827	5.595	1.84057
5.6	3.77994	5.6	3.23656
5.605	4.37304	5.605	4.89602
5.61	5.42845	5.61	5.50431
5.615	6.59424	5.615	5.56054
5.62	7.07398	5.62	5.9715
5.625	5.13017	5.625	5.22672
5.63	6.32063	5.63	5.29568
5.635	8.4842	5.635	7.38152
5.64	6.77778	5.64	5.61647
5.645	7.13601	5.645	5.93039
5.65	7.15328	5.65	6.39116
5.655	5.72936	5.655	4.81671
5.66	6.29939	5.66	5.27351
5.665	6.71397	5.665	5.60284
5.67	3.44261	5.67	2.74427
5.675	6.18466	5.675	5.31277
5.68	3.2465	5.68	2.2441
5.685	4.71852	5.685	2.84403
5.69	4.8021	5.69	4.2879
5.695	5.47494	5.695	4.73407
5.7	6.35338	5.7	4.66829
5.705	5.33874	5.705	2.93499
5.71	5.20811	5.71	4.27973
5.715	5.72019	5.715	4.65146
5.72	4.81257	5.72	2.86436
5.725	7.05301	5.725	5.20859
5.73	7.45612	5.73	4.91532
5.735	7.12476	5.735	5.30214
5.74	7.10434	5.74	5.33722
5.745	8.74109	5.745	7.01527
5.75	8.69138	5.75	6.2223
5.755	8.25888	5.755	5.99577
5.76	7.29565	5.76	6.43765
5.765	7.57006	5.765	5.74513
5.77	7.3806	5.77	5.59388
5.775	9.27741	5.775	6.74513
5.78	6.98844	5.78	4.6604
5.785	8.57454	5.785	6.39934
5.79	7.47427	5.79	6.66435
5.795	9.31121	5.795	7.50448
5.8	8.64266	5.8	6.85173
5.805	9.79314	5.805	8.01374
5.81	7.71315	5.81	5.16819
5.815	9.07405	5.815	6.71831
5.82	8.81722	5.82	5.8292
5.825	9.2691	5.825	7.82122
5.83	8.56682	5.83	7.02718
5.835	10.0789	5.835	7.6962
5.84	9.16656	5.84	6.91504
5.845	10.1341	5.845	7.98064
5.85	9.19531	5.85	7.11502
5.855	10.5299	5.855	7.73032
5.86	9.4845	5.86	6.90882
5.865	10.3522	5.865	7.94413
5.87	11.0038	5.87	8.72116
5.875	10.215	5.875	7.25213
5.88	10.8932	5.88	8.18364
5.885	9.7373	5.885	7.21739
5.89	10.5221	5.89	8.14411
5.895	10.873	5.895	9.07818
5.9	9.32606	5.9	8.25939
5.905	10.5864	5.905	8.52786
5.91	9.48513	5.91	7.44617
5.915	9.92394	5.915	8.6732
5.92	10.6357	5.92	9.21208
5.925	9.89186	5.925	7.56436
5.93	10.2168	5.93	8.74873
5.935	10.4562	5.935	9.64253
5.94	11.0184	5.94	9.93146
5.945	10.1624	5.945	8.09627
5.95	10.7901	5.95	8.75306
5.955	11.5002	5.955	9.00755
5.96	9.50124	5.96	8.40033
5.965	10.9024	5.965	8.34747
5.97	11.3307	5.97	8.9315
5.975	9.60033	5.975	8.09149
5.98	10.336	5.98	8.73089
5.985	10.5015	5.985	9.59778
5.99	11.0083	5.99	9.86647
5.995	9.33668	5.995	8.78993
6	9.72949	6	9.63886
6.005	10.4066	6.005	9.89407
6.01	10.9152	6.01	10.0858
6.015	11.2973	6.015	10.23
6.02	9.53226	6.02	9.06012
6.025	9.85494	6.025	9.839
6.03	10.4795	6.03	10.0416
6.035	10.5616	6.035	10.5809
6.04	9.34037	6.04	8.93847
6.045	9.68903	6.045	9.7448
6.05	10.333	6.05	9.96802
6.055	10.6683	6.055	10.2842
6.06	9.39544	6.06	8.71577
6.065	9.70538	6.065	9.57762
6.07	10.3203	6.07	9.84245
6.075	10.3952	6.075	10.4283
6.08	10.447	6.08	10.8731
6.085	8.81594	6.085	9.54673
6.09	9.23908	6.09	10.2082
6.095	9.16502	6.095	11.0966
6.1	9.87383	6.1	10.9995
6.105	8.59224	6.105	9.40996
6.11	9.42299	6.11	9.72851
6.115	9.65971	6.115	10.3546
6.12	7.78042	6.12	9.55115
6.125	8.78616	6.125	9.83595
6.13	9.15409	6.13	10.4367
6.135	9.03859	6.135	11.2796
6.14	9.71627	6.14	11.1483
6.145	8.4113	6.145	9.53308
6.15	9.22448	6.15	9.83233
6.155	9.44798	6.155	10.444
6.16	9.61109	6.16	10.908
6.165	9.72889	6.165	11.2613
6.17	8.53428	6.17	9.47929
6.175	8.9028	6.175	10.1808
6.18	9.17465	6.18	10.7123
6.185	9.76095	6.185	10.7292
6.19	9.42732	6.19	11.516
6.195	10.5668	6.195	10.7171
6.2	8.74642	6.2	9.46297
6.205	9.02743	6.205	10.1785
6.21	9.62058	6.21	10.3335
6.215	9.67901	6.215	10.8369
6.22	8.05288	6.22	9.55436
6.225	8.4796	6.225	10.2486
6.23	9.42054	6.23	10.149
6.235	8.21995	6.235	8.65052
6.24	8.58393	6.24	9.56465
6.245	8.85233	6.245	10.2555
6.25	9.43597	6.25	10.3919
6.255	9.48724	6.255	10.8813
6.26	9.90805	6.26	10.8667
6.265	8.17179	6.265	9.57737
6.27	8.90282	6.27	9.87956
6.275	9.06462	6.275	10.4933
6.28	9.56829	6.28	10.5719
6.285	10.572	6.285	10.0054
6.29	8.64963	6.29	8.92558
6.295	9.24105	6.295	9.38483
6.3	9.68507	6.3	9.72938
6.305	10.0185	6.305	9.98791
6.31	9.88213	6.31	10.5689
6.315	10.1621	6.315	10.6228
6.32	8.7072	6.32	8.99803
6.325	9.26731	6.325	9.43042
6.33	9.68783	6.33	9.7548
6.335	9.61669	6.335	10.3851
6.34	9.94564	6.34	10.4761
6.345	10.1928	6.345	10.5444
6.35	8.71316	6.35	8.93039
6.355	9.88023	6.355	8.74533
6.36	9.74572	6.36	9.61684
6.365	10.0271	6.365	9.88868
6.37	10.2386	6.37	10.0926
6.375	10.3976	6.375	10.2457
6.38	8.85185	6.38	8.69514
6.385	9.34383	6.385	9.18318
6.39	9.71321	6.39	9.54928
6.395	9.99063	6.395	9.8239
6.4	10.1991	6.4	10.0299
6.405	10.3558	6.405	10.1845
6.41	10.4738	6.41	10.3005
6.415	8.89722	6.415	8.72214
6.42	9.36607	6.42	9.1893
6.425	9.71809	6.425	9.53972
6.43	9.98247	6.43	9.80257
6.435	10.1811	6.435	9.99974
6.44	8.66509	6.44	8.48226
6.445	9.80479	6.445	8.36958
6.45	10.0367	6.45	8.90836
6.455	10.2109	6.455	9.31246
6.46	10.3419	6.46	9.61555
6.465	8.77517	6.465	8.1775
6.47	9.25133	6.47	8.74984
6.475	9.60878	6.475	9.1791
6.48	9.8772	6.48	9.50104
6.485	10.0788	6.485	9.7425
6.49	10.2304	6.49	9.92358
6.495	10.3444	6.495	10.0594
6.5	10.4303	6.5	10.1613
6.505	8.8296	6.505	8.57225
6.51	9.2803	6.51	9.03137
6.515	9.61864	6.515	9.37569
6.52	9.87271	6.52	9.6339
6.525	10.4505	6.525	9.4406
6.53	10.5023	6.53	9.67746
6.535	10.5415	6.535	9.85509
6.54	10.5712	6.54	9.98829
6.545	10.5938	6.545	10.0882
6.55	8.94565	6.55	8.49766
6.555	9.36073	6.555	8.95563
6.56	9.67234	6.56	9.29907
6.565	9.90634	6.565	9.55661
6.57	10.0821	6.57	9.74972
6.575	10.2143	6.575	9.89452
6.58	10.3137	6.58	10.0031
6.585	10.3885	6.585	10.0844
6.59	10.445	6.59	10.1454
6.595	10.4876	6.595	10.1911
6.6	8.85445	6.6	8.55998
6.605	9.28077	6.605	8.98745
6.61	9.60079	6.61	9.30799
6.615	9.84108	6.615	9.54833
6.62	10.0216	6.62	9.72853
6.625	10.1572	6.625	9.86362
6.63	10.2592	6.63	9.96487
6.635	10.336	6.635	10.0408
6.64	10.3939	6.64	10.0976
6.645	10.4376	6.645	10.1402
6.65	10.4706	6.65	10.1721
6.655	8.83025	6.655	8.53052
6.66	9.25114	6.66	8.95017
6.665	9.56707	6.665	9.26483
6.67	9.80427	6.67	9.50075
6.675	9.98243	6.675	9.67761
6.68	10.1163	6.68	9.81017
6.685	10.217	6.685	9.90952
6.69	10.2927	6.69	9.98395
6.695	10.3498	6.695	10.0397
6.7	10.3929	6.7	10.0814
6.705	10.4254	6.705	10.1126
6.71	8.7847	6.71	8.47058
6.715	9.20529	6.715	8.88982
6.72	9.52097	6.72	9.20416
6.725	9.75797	6.725	9.43982
6.73	9.93596	6.73	9.61646
6.735	10.0697	6.735	9.74885
6.74	10.1702	6.74	9.84804
6.745	10.2459	6.745	9.92233
6.75	10.3028	6.75	9.97796
6.755	10.3458	6.755	10.0196
6.76	10.3783	6.76	10.0507
6.765	10.4028	6.765	10.0739
6.77	10.4215	6.77	10.0913
6.775	10.4358	6.775	10.1042
6.78	8.7813	6.78	8.44835
6.785	9.19156	6.785	8.85726
6.79	9.49947	6.79	9.16383
6.795	9.10514	6.795	10.0191
6.8	9.43289	6.8	10.0372
6.805	9.67892	6.805	10.0506
6.81	9.86365	6.81	10.0606
6.815	9.61548	6.815	10.4549
6.82	9.81143	6.82	10.3687
6.825	9.95862	6.825	10.3038
6.83	10.0692	6.83	10.2551
6.835	10.1524	6.835	10.2185
6.84	10.215	6.84	10.1909
6.845	10.2622	6.845	10.17
6.85	8.63236	6.85	8.48891
6.855	9.0611	6.855	8.87882
6.86	9.38285	6.86	9.17112
6.865	9.62437	6.865	9.39021
6.87	9.8057	6.87	9.55439
6.875	9.9419	6.875	9.67739
6.88	10.0443	6.88	9.7695
6.885	10.1212	6.885	9.83845
6.89	10.1791	6.89	9.89003
6.895	10.2228	6.895	9.92858
6.9	10.2557	6.9	9.95735
6.905	9.89365	6.905	10.3657
6.91	9.3787	6.91	10.9155
6.915	9.61595	6.915	10.7044
6.92	9.79409	6.92	10.546
6.925	9.92789	6.925	10.427
6.93	10.0284	6.93	10.3377
6.935	10.1041	6.935	10.2705
6.94	10.161	6.94	10.22
6.945	10.2038	6.945	10.182
6.95	10.2362	6.95	10.1534
6.955	8.59527	6.955	8.46637
6.96	9.01564	6.96	8.85185
6.965	9.3311	6.965	9.14081
6.97	9.56787	6.97	9.35737
6.975	9.12015	6.975	10.1451
6.98	9.40781	6.98	10.1125
6.985	9.62374	6.985	10.0879
6.99	9.78586	6.99	10.0693
6.995	9.90762	6.995	10.0552
7	9.99913	7	10.0444
7.005	10.0679	7.005	10.0362
7.01	10.1197	7.01	10.0299
7.015	10.5457	7.015	9.6381
7.02	10.4835	7.02	9.72594
7.025	10.437	7.025	9.79167
7.03	10.4023	7.03	9.84081
7.035	9.75098	7.035	10.503
7.04	9.88594	7.04	10.3762
7.045	9.98734	7.045	10.281
7.05	10.0636	7.05	10.2094
7.055	10.1209	7.055	10.1556
7.06	10.1641	7.06	10.115
7.065	10.1967	7.065	10.0845
7.07	10.2213	7.07	10.0614
7.075	10.2399	7.075	10.044
7.08	10.2541	7.08	10.0307
7.085	10.6518	7.085	9.6337
7.09	10.5684	7.09	9.71764
7.095	9.88056	7.095	10.4059
7.1	9.98812	7.1	10.2987
7.105	10.069	7.105	10.2182
7.11	10.1298	7.11	10.1576
7.115	8.51018	7.115	8.44662
7.12	8.94652	7.12	8.81411
7.125	9.27394	7.125	9.08956
7.13	9.51965	7.13	9.29598
7.135	10.091	7.135	9.06368
7.14	9.5124	7.14	9.89663
7.145	9.70185	7.145	9.8979
7.15	9.84409	7.15	9.89868
7.155	9.95092	7.155	9.8991
7.16	10.0312	7.16	9.89924
7.165	10.0916	7.165	9.89918
7.17	10.524	7.17	9.51202
7.175	10.4665	7.175	9.60335
7.18	10.4236	7.18	9.67168
7.185	9.7661	7.185	10.3482
7.19	9.8964	7.19	10.2322
7.195	9.99428	7.195	10.145
7.2	10.0678	7.2	10.0795
7.205	10.1232	7.205	10.0301
7.21	10.5518	7.21	9.60601
7.215	10.4915	7.215	9.66962
7.22	10.4465	7.22	9.71716
7.225	9.78735	7.225	10.3781
7.23	9.91645	7.23	10.2504
7.235	10.0134	7.235	10.1545
7.24	10.0863	7.24	10.0823
7.245	10.5281	7.245	9.64112
7.25	10.4777	7.25	9.69191
7.255	10.4401	7.255	9.72984
7.26	10.412	7.26	9.75811
7.265	10.3911	7.265	9.77915
7.27	9.75008	7.27	10.4202
7.275	9.89276	7.275	10.2776
7.28	9.99992	7.28	10.1705
7.285	10.0804	7.285	10.09
7.29	10.5279	7.29	9.64249
7.295	10.4818	7.295	9.68857
7.3	10.4474	7.3	9.72296
7.305	10.4218	7.305	9.74859
7.31	10.4027	7.31	9.76764
7.315	9.76302	7.315	10.4072
7.32	9.90671	7.32	10.2635
7.325	8.73618	7.325	8.1032
7.33	9.12745	7.33	8.51555
7.335	9.42103	7.335	8.82462
7.34	9.64134	7.34	9.05624
7.345	9.80672	7.345	9.22977
7.35	9.3054	7.35	9.98522
7.355	9.55281	7.355	9.92834
7.36	9.73851	7.36	9.88551
7.365	9.87791	7.365	9.8532
7.37	9.98259	7.37	9.82878
7.375	10.0612	7.375	9.81028
7.38	10.5073	7.38	9.40928
7.385	10.4601	7.385	9.49021
7.39	9.79938	7.39	10.1762
7.395	9.92723	7.395	10.0672
7.4	10.0232	7.4	9.98535
7.405	10.0954	7.405	9.92374
7.41	10.1496	7.41	9.87735
7.415	10.1904	7.415	9.84238
7.42	10.2212	7.42	9.81597
7.425	9.61889	7.425	10.4215
7.43	9.79057	7.43	10.2521
7.435	10.3064	7.435	9.73799
7.44	10.3115	7.44	9.73407
7.445	10.3155	7.445	9.73096
7.45	9.69318	7.45	10.3539
7.455	9.84981	7.455	10.1977
7.46	9.96741	7.46	10.0803
7.465	10.0557	7.465	9.99214
7.47	10.1221	7.47	9.92581
7.475	10.172	7.475	9.87588
7.48	10.2096	7.48	9.83826
7.485	10.2379	7.485	9.80986
7.49	9.63378	7.49	10.4139
7.495	10.191	7.495	9.85646
7.5	9.84029	7.5	10.207
7.505	10.3462	7.505	9.70099
7.51	9.9569	7.51	10.0901
7.515	10.4339	7.515	9.61291
7.52	10.4099	7.52	9.63672
7.525	10.392	7.525	9.6544
7.53	9.75326	7.53	10.293
7.535	9.8976	7.535	10.1484
7.54	10.006	7.54	10.0398
7.545	10.0874	7.545	9.95823
7.55	10.1486	7.55	9.89685
7.555	10.1946	7.555	9.85063
7.56	10.2292	7.56	9.81579
7.565	10.2553	7.565	9.78947
7.57	9.64956	7.57	10.395
7.575	10.2056	7.575	9.83882
7.58	9.8539	7.58	10.1903
7.585	10.3591	7.585	9.68491
7.59	10.3562	7.59	9.68755
7.595	11.6327	7.595	11.7417
7.6	11.7081	7.6	10.8625
7.605	11.3829	7.605	10.5847
7.61	11.1392	7.61	10.3763
7.615	10.331	7.615	10.8453
7.62	10.3483	7.62	10.5736
7.625	10.3615	7.625	10.3696
7.63	10.3715	7.63	10.2165
7.635	10.3791	7.635	10.1015
7.64	10.385	7.64	10.0151
7.645	10.3895	7.645	9.95019
7.65	10.3931	7.65	9.90132
7.655	9.7704	7.655	10.49
7.66	9.92682	7.66	10.3081
7.665	10.0443	7.665	10.1715
7.67	10.1325	7.67	10.0688
7.675	10.1988	7.675	9.99173
7.68	10.2487	7.68	9.93374
7.685	10.2863	7.685	9.89009
7.69	9.6891	7.69	10.4827
7.695	9.86464	7.695	10.3037
7.7	9.99643	7.7	10.1693
7.705	10.0954	7.705	10.0683
7.71	10.1698	7.71	9.99247
7.715	10.2257	7.715	9.93542
7.72	10.2678	7.72	9.89247
7.725	10.2995	7.725	9.8601
7.73	9.69798	7.73	10.4612
7.735	9.87023	7.735	10.2885
7.74	9.99956	7.74	10.1589
7.745	10.0967	7.745	10.0615
7.75	10.1697	7.75	9.98831
7.755	10.2246	7.755	9.93326
7.76	10.2659	7.76	9.89182
7.765	10.297	7.765	9.86059
7.77	10.3205	7.77	9.83701
7.775	9.71277	7.775	10.4446
7.78	10.2673	7.78	9.89001
7.785	10.3015	7.785	9.85574
7.79	10.3273	7.79	9.82988
7.795	10.3468	7.795	9.81034
7.8	10.3616	7.8	9.79552
7.805	10.3728	7.805	9.78426
7.81	9.75583	7.81	10.4011
7.815	9.91654	7.815	10.2404
7.82	10.0372	7.82	10.1196
7.825	10.1279	7.825	10.029
7.83	9.80903	7.83	10.3477
7.835	10.3389	7.835	9.81784
7.84	10.3545	7.84	9.80213
7.845	10.3664	7.845	9.79021
7.85	8.08456	7.85	8.74119
7.855	8.64748	7.855	8.98188
7.86	9.06978	7.86	9.16222
7.865	9.38663	7.865	9.29731
7.87	9.62439	7.87	9.39846
7.875	9.80282	7.875	9.47415
7.88	9.93677	7.88	9.53074
7.885	9.41187	7.885	10.1985
7.89	9.64158	7.89	10.0759
7.895	9.81399	7.895	9.98373
7.9	9.94341	7.9	9.91446
7.905	10.0406	7.905	9.86233
7.91	10.1136	7.91	9.82307
7.915	9.543	7.915	10.4189
7.92	9.73844	7.92	10.2424
7.925	9.88513	7.925	10.1098
7.93	9.99527	7.93	10.0102
7.935	10.078	7.935	9.93534
7.94	10.1401	7.94	9.87902
7.945	10.1869	7.945	9.83661
7.95	10.2221	7.95	9.80463
7.955	9.62307	7.955	10.406
7.96	9.79722	7.96	10.2335
7.965	9.92795	7.965	10.104
7.97	10.0261	7.97	10.0067
7.975	10.0999	7.975	9.93359
7.98	10.1553	7.98	9.87857
7.985	10.197	7.985	9.83713
7.99	10.2283	7.99	9.80589
7.995	9.62651	7.995	10.4078
8	9.79853	8	10.2357
8.005	9.92765	8.005	10.1066
8.01	10.0246	8.01	10.0095
8.015	10.0975	8.015	9.93653
8.02	10.1522	8.02	9.88164
8.025	10.5803	8.025	9.45337
8.03	10.5197	8.03	9.51385
8.035	10.4743	8.035	9.55905
8.04	9.81488	8.04	10.2183
8.045	9.94372	8.045	10.0892
8.05	10.0405	8.05	9.9923
8.055	10.1131	8.055	9.91943
8.06	10.1678	8.06	9.86462
8.065	10.2088	8.065	9.82334
8.07	10.2398	8.07	9.79221
8.075	9.63758	8.075	10.3942
8.08	9.80934	8.08	10.2222
8.085	9.93827	8.085	10.0931
8.09	10.0351	8.09	9.99607
8.095	10.1078	8.095	9.92314
8.1	10.1625	8.1	9.86828
8.105	10.2036	8.105	9.82697
8.11	9.60903	8.11	10.4213
8.115	9.78652	8.115	10.2436
8.12	9.91974	8.12	10.1102
8.125	10.0198	8.125	10.01
8.13	10.0949	8.13	9.93461
8.135	10.1514	8.135	9.87794
8.14	10.1938	8.14	9.83528
8.145	9.60032	8.145	10.4286
8.15	9.77856	8.15	10.2501
8.155	9.91235	8.155	10.1161
8.16	10.0128	8.16	10.0155
8.165	10.0883	8.165	9.93982
8.17	10.145	8.17	9.88292
8.175	10.1876	8.175	9.84007
8.18	9.59422	8.18	10.4333
8.185	9.77256	8.185	10.2547
8.19	9.90643	8.19	10.1206
8.195	10.0069	8.195	10.0199
8.2	10.0824	8.2	9.94422
8.205	10.5261	8.205	9.50034
8.21	10.4771	8.21	9.54913
8.215	10.4405	8.215	9.58556
8.22	9.78764	8.22	10.2382
8.225	9.92139	8.225	10.1042
8.23	10.0218	8.23	10.0036
8.235	10.0972	8.235	9.92799
8.24	10.1539	8.24	9.87111
8.245	10.1965	8.245	9.82829
8.25	10.2286	8.25	9.79601
8.255	10.2528	8.255	9.77164
8.26	10.271	8.26	9.7532
8.265	9.65931	8.265	10.3647
8.27	9.82392	8.27	10.1999
8.275	9.94749	8.275	10.0761
8.28	11.7057	8.28	11.6485
8.285	11.3735	8.285	11.1768
8.29	11.1246	8.29	10.8228
8.295	11.3249	8.295	10.1703
8.3	10.468	8.3	10.6881
8.305	10.4487	8.305	10.453
8.31	10.4343	8.31	10.2766
8.315	10.4236	8.315	10.1441
8.32	10.4158	8.32	10.0446
8.325	10.41	8.325	9.96988
8.33	10.4058	8.33	9.91367
8.335	10.4028	8.335	9.87138
8.34	9.7752	8.34	10.465
8.345	9.92788	8.345	10.2868
8.35	10.0425	8.35	10.153
8.355	10.1286	8.355	10.0525
8.36	10.1933	8.36	9.97703
8.365	10.242	8.365	9.92027
8.37	10.2786	8.37	9.87755
8.375	10.3062	8.375	9.84538
8.38	9.70154	8.38	10.4466
8.385	9.87144	8.385	10.2741
8.39	9.99899	8.39	10.1446
8.395	10.0948	8.395	10.0473
8.4	10.1667	8.4	9.97421
8.405	10.2208	8.405	9.91925
8.41	10.2615	8.41	9.87789
8.415	9.66672	8.415	10.4722
8.42	8.1786	8.42	8.62915
8.425	8.7135	8.425	8.89759
8.43	9.11479	8.43	9.09877
8.435	9.41586	8.435	9.24949
8.44	9.64177	8.44	9.36238
8.445	9.8113	8.445	9.44688
8.45	9.93856	8.45	9.51011
8.455	10.0341	8.455	9.55737
8.46	9.48039	8.46	10.2181
8.465	9.68848	8.465	10.0903
8.47	9.84466	8.47	9.99425
8.475	9.96189	8.475	9.92206
8.48	10.0499	8.48	9.86777
8.485	10.116	8.485	9.82689
8.49	10.1657	8.49	9.79608
8.495	10.2031	8.495	9.77281
8.5	10.2313	8.5	9.75521
8.505	10.2525	8.505	9.74185
8.51	9.643	8.51	10.3572
8.515	9.80927	8.515	10.1952
8.52	9.93408	8.52	10.0736
8.525	10.0278	8.525	9.98222
8.53	10.0982	8.53	9.91355
8.535	10.1511	8.535	9.86188
8.54	10.5778	8.54	9.43603
8.545	10.5161	8.545	9.49836
8.55	9.8444	8.55	10.1704
8.555	9.96402	8.555	10.0511
8.56	10.0538	8.56	9.96137
8.565	10.1213	8.565	9.89395
8.57	10.172	8.57	9.84324
8.575	10.2101	8.575	9.80505
8.58	10.2388	8.58	9.77625
8.585	10.2605	8.585	9.7545
8.59	10.2768	8.59	9.73803
8.595	9.66365	8.595	10.351
8.6	9.82717	8.6	10.1873
8.605	9.94992	8.605	10.0644
8.61	10.0421	8.61	9.97205
8.615	10.1113	8.615	9.90264
8.62	10.1633	8.62	9.85043
8.625	10.2024	8.625	9.81112
8.63	10.2319	8.63	9.78148
8.635	10.254	8.635	9.75911
8.64	10.2708	8.64	9.74217
8.645	9.65795	8.645	10.3548
8.65	9.8217	8.65	10.1908
8.655	9.94462	8.655	10.0677
8.66	10.0369	8.66	9.97523
8.665	10.1062	8.665	9.90571
8.67	10.1583	8.67	9.85342
8.675	10.1975	8.675	9.81405
8.68	10.2269	8.68	9.78437
8.685	9.62367	8.685	10.3874
8.69	9.79459	8.69	10.2163
8.695	9.92288	8.695	10.0878
8.7	10.0192	8.7	9.99131
8.705	10.0915	8.705	9.91877
8.71	10.1459	8.71	9.86421
8.715	10.1867	8.715	9.82315
8.72	10.2175	8.72	9.7922
8.725	10.2406	8.725	9.76883
8.73	10.2581	8.73	9.75116
8.735	10.2713	8.735	9.73775
8.74	10.2813	8.74	9.72755
8.745	9.66344	8.745	10.3452
8.75	9.8234	8.75	10.1851
8.755	9.94347	8.755	10.0648
8.76	10.0336	8.76	9.97443
8.765	10.1013	8.765	9.90652
8.77	10.1522	8.77	9.85543
8.775	10.5774	8.775	9.43002
8.78	10.1276	8.78	9.87962
8.785	10.5592	8.785	9.44786
8.79	8.83566	8.79	7.84036
8.795	8.18159	8.795	9.29789
8.8	9.08319	8.8	8.99878
8.805	8.99066	8.805	9.54309
8.81	9.30321	8.81	9.5693
8.815	9.53769	8.815	9.58878
8.82	9.71364	8.82	9.60322
8.825	9.84567	8.825	9.61389
8.83	9.94478	8.83	9.62172
8.835	10.0192	8.835	9.62743
8.84	9.44959	8.84	10.257
8.845	9.64574	8.845	10.1058
8.85	9.79294	8.85	9.99217
8.855	9.90341	8.855	9.9068
8.86	9.98634	8.86	9.84261
8.865	10.0486	8.865	9.7943
8.87	10.0954	8.87	9.7579
8.875	10.1306	8.875	9.73043
8.88	9.53154	8.88	10.3351
8.885	9.70561	8.885	10.1652
8.89	9.83625	8.89	10.0376
8.895	9.9343	8.895	9.94179
8.9	10.0079	8.9	9.86972
8.905	10.0632	8.905	9.81551
8.91	10.1047	8.91	9.77469
8.915	10.136	8.915	9.7439
8.92	11.8249	8.92	11.386
8.925	11.4408	8.925	10.9666
8.93	11.1528	8.93	10.6519
8.935	10.3114	8.935	11.0412
8.94	10.3037	8.94	10.7097
8.945	10.298	8.945	10.461
8.95	10.2939	8.95	10.2743
8.955	10.2909	8.955	10.1341
8.96	10.2887	8.96	10.0289
8.965	10.2872	8.965	9.94977
8.97	10.2861	8.97	9.8903
8.975	10.2854	8.975	9.84555
8.98	10.285	8.98	9.81184
8.985	10.2848	8.985	9.78641
8.99	10.2847	8.99	9.7672
8.995	10.2847	8.995	9.75264
9	10.2849	9	9.74158
9.005	9.65958	9.005	10.3586
9.01	9.81397	9.01	10.198
9.015	9.92987	9.015	10.0773
9.02	10.0169	9.02	9.98674
9.025	10.0822	9.025	9.91863
9.03	10.1313	9.03	9.86741
9.035	10.1683	9.035	9.82884
9.04	10.1961	9.04	9.79978
9.045	10.217	9.045	9.77783
9.05	10.2328	9.05	9.76123
9.055	10.2447	9.055	9.74863
9.06	10.2538	9.06	9.73904
9.065	10.2606	9.065	9.7317
9.07	10.2659	9.07	9.72605
9.075	10.2699	9.075	9.72167
9.08	9.64758	9.08	10.3437
9.085	9.80417	9.085	10.1868
9.09	9.92171	9.09	10.069
9.095	10.01	9.095	9.98054
9.1	10.0762	9.1	9.91402
9.105	10.126	9.105	9.86399
9.11	10.1635	9.11	9.82632
9.115	10.1917	9.115	9.79793
9.12	10.2129	9.12	9.77649
9.125	9.84194	9.125	10.1472
9.13	9.9457	9.13	10.0432
9.135	10.0236	9.135	9.96512
9.14	9.45665	9.14	10.5319
9.145	9.6548	9.145	10.3335
9.15	9.8035	9.15	10.1846
9.155	9.91512	9.155	10.0728
9.16	9.99893	9.16	9.98877
9.165	10.0619	9.165	9.92562
9.17	10.1092	9.17	9.87811
9.175	10.1447	9.175	9.84234
9.18	10.1715	9.18	9.81537
9.185	10.1917	9.185	9.79499
9.19	10.2069	9.19	9.77957
9.195	10.2184	9.195	9.76786
9.2	10.2271	9.2	9.75894
9.205	10.2338	9.205	9.7521
9.21	10.2388	9.21	9.74683
9.215	9.61723	9.215	10.3682
9.22	9.77441	9.22	10.2108
9.225	9.50543	9.225	10.4796
9.23	10.0726	9.23	9.91223
9.235	9.72925	9.235	10.2554
9.24	9.8537	9.24	10.1307
9.245	9.94713	9.245	10.0371
9.25	10.0173	9.25	9.96672
9.255	10.07	9.255	9.91381
9.26	10.1096	9.26	9.87398
9.265	10.1394	9.265	9.84396
9.27	10.1619	9.27	9.82131
9.275	10.1788	9.275	9.80418
9.28	10.1916	9.28	9.79119
9.285	10.2013	9.285	9.7813
9.29	11.2485	9.29	12.0646
9.295	11.0065	9.295	11.5028
9.3	10.825	9.3	11.0814
9.305	10.6891	9.305	10.7651
9.31	10.5872	9.31	10.5278
9.315	10.5109	9.315	10.3498
9.32	10.4538	9.32	10.2161
9.325	10.4111	9.325	10.1157
9.33	10.3792	9.33	10.0403
9.335	10.3553	9.335	9.98359
9.34	10.3375	9.34	9.94095
9.345	10.3243	9.345	9.90886
9.35	9.92757	9.35	10.2716
9.355	10.3989	9.355	9.77474
9.36	9.98374	9.36	10.1708
9.365	10.4413	9.365	9.69887
9.37	10.0157	9.37	10.1136
9.375	9.45305	9.375	10.6682
9.38	9.65443	9.38	10.4607
9.385	9.80557	9.385	10.305
9.39	9.91903	9.39	10.1881
9.395	10.0042	9.395	10.1003
9.4	10.0683	9.4	10.0343
9.405	10.1164	9.405	9.9847
9.41	10.1526	9.41	9.94738
9.415	8.51442	9.415	8.25387
9.42	8.9368	9.42	8.63449
9.425	9.25367	9.425	8.91982
9.43	9.49141	9.43	9.13367
9.435	9.66981	9.435	9.29392
9.44	9.80369	9.44	9.41397
9.445	9.9042	9.445	9.50387
9.45	9.97966	9.45	9.57115
9.455	9.41087	9.455	10.2469
9.46	9.60764	9.46	10.1304
9.465	9.7553	9.465	10.0428
9.47	9.86614	9.47	9.97702
9.475	9.94935	9.475	9.92753
9.48	10.0118	9.48	9.89026
9.485	10.0588	9.485	9.86218
9.49	10.0941	9.49	9.84098
9.495	10.1207	9.495	9.82494
9.5	10.1407	9.5	9.81277
9.505	10.1558	9.505	9.8035
9.51	10.1672	9.51	9.79641
9.515	10.1759	9.515	9.79095
9.52	10.1824	9.52	9.78672
9.525	10.1875	9.525	9.78341
9.53	9.56583	9.53	10.4063
9.535	9.72297	9.535	10.25
9.54	9.84091	9.54	10.1327
9.545	9.92945	9.545	10.0445
9.55	9.99594	9.55	9.97827
9.555	10.0459	9.555	9.92845
9.56	10.0835	9.56	9.89095
9.565	10.1117	9.565	9.86268
9.57	10.133	9.57	9.84134
9.575	10.149	9.575	9.8252
9.58	10.1612	9.58	9.81296
9.585	9.78338	9.585	10.1906
9.59	9.88201	9.59	10.0918
9.595	9.95607	9.595	10.0176
9.6	9.38621	9.6	10.5872
9.605	9.58218	9.605	10.3911
9.61	9.72925	9.61	10.2438
9.615	9.83963	9.615	10.1333
9.62	9.92251	9.62	10.0502
9.625	9.98475	9.625	9.98774
9.63	10.0315	9.63	9.94078
9.635	10.0667	9.635	9.90541
9.64	10.0931	9.64	9.87876
9.645	10.1131	9.645	9.85862
9.65	10.1281	9.65	9.84339
9.655	10.1395	9.655	9.83182
9.66	10.1481	9.66	9.82301
9.665	10.1546	9.665	9.81627
9.67	10.1596	9.67	9.81107
9.675	9.53794	9.675	10.4325
9.68	9.69506	9.68	10.2752
9.685	9.81299	9.685	10.1571
9.69	9.90152	9.69	10.0683
9.695	9.968	9.695	10.0016
9.7	10.0179	9.7	9.9515
9.705	10.0555	9.705	9.91375
9.71	10.0837	9.71	9.8853
9.715	10.105	9.715	9.86383
9.72	10.121	9.72	9.84758
9.725	10.1332	9.725	9.83527
9.73	10.1423	9.73	9.82589
9.735	10.1493	9.735	9.81873
9.74	10.1546	9.74	9.81322
9.745	10.1587	9.745	9.80895
9.75	9.53631	9.75	10.4311
9.755	9.6929	9.755	10.2743
9.76	9.81044	9.76	10.1566
9.765	9.89867	9.765	10.0681
9.77	9.96493	9.77	10.0017
9.775	10.0147	9.775	9.95167
9.78	10.0521	9.78	9.91405
9.785	10.0803	9.785	9.88569
9.79	10.1015	9.79	9.86429
9.795	10.1174	9.795	9.84811
9.8	10.1295	9.8	9.83584
9.805	10.1387	9.805	9.82649
9.81	10.1456	9.81	9.81935
9.815	10.1509	9.815	9.81386
9.82	10.1549	9.82	9.80961
9.825	10.158	9.825	9.80628
9.83	9.53499	9.83	10.4291
9.835	9.69105	9.835	10.2729
9.84	9.80818	9.84	10.1555
9.845	9.89612	9.845	10.0674
9.85	9.96215	9.85	10.0012
9.855	10.0118	9.855	9.95135
9.86	10.049	9.86	9.91385
9.865	10.0771	9.865	9.8856
9.87	10.4852	9.87	9.47733
9.875	10.0225	9.875	9.9398
9.88	10.4444	9.88	9.51771
9.885	10.379	9.885	9.58287
9.89	10.3301	9.89	9.63161
9.895	10.2934	9.895	9.66803
9.9	10.266	9.9	9.69521
9.905	9.62011	9.905	10.3409
9.91	9.75902	9.91	10.2018
9.915	9.86328	9.915	10.0974
9.92	9.94155	9.92	10.0189
9.925	10.0003	9.925	9.95989
9.93	10.0445	9.93	9.91552
9.935	10.0777	9.935	9.8821
9.94	10.1027	9.94	9.8569
9.945	10.1215	9.945	9.83787
9.95	10.1358	9.95	9.82346
9.955	10.1465	9.955	9.81253
9.96	10.1546	9.96	9.80419
9.965	10.1608	9.965	9.7978
9.97	10.1655	9.97	9.79288
9.975	9.54366	9.975	10.4145
9.98	9.70062	9.98	10.2574
9.985	9.81842	9.985	10.1394
9.99	11.5722	9.99	11.7161
9.995	11.2368	9.995	11.2477
10	1.85031	10	-6.26732
10.005	1.6461	10.005	-6.55021
10.01	1.48912	10.01	-6.76729
10.015	0.980611	10.015	-6.54807
10.02	0.590321	10.02	-6.38348
10.025	1.06259	10.025	-7.03377
10.03	0.405617	10.03	-6.51905
10.035	0.532334	10.035	-6.7612
10.04	0.236597	10.04	-6.56077
10.045	0.779779	10.045	-7.18418
10.05	0.801473	10.05	-7.27478
10.055	0.188435	10.055	-6.72216
10.06	0.348101	10.06	-6.93588
10.065	2.12942	10.065	-5.43568
10.07	1.18522	10.07	-5.34084
10.075	1.09654	10.075	-5.89787
10.08	2.30467	10.08	-4.26819
10.085	1.93794	10.085	-5.08356
10.09	2.69903	10.09	-3.40908
10.095	2.23845	10.095	-4.43224
10.1	2.92915	10.1	-2.91359
10.105	2.41581	10.105	-4.05359
10.11	2.02705	10.11	-4.91343
10.115	2.77164	10.115	-3.27226
10.12	3.96412	10.12	-2.65496
10.125	4.24378	10.125	-1.55679
10.13	5.08761	10.13	-1.34671
10.135	5.10583	10.135	-0.553917
10.14	4.08821	10.14	-2.23822
10.145	4.98672	10.145	-1.84078
10.15	6.71139	10.15	0.757963
10.155	5.32277	10.155	-1.22271
10.16	4.93067	10.16	-0.0350658
10.165	5.65265	10.165	-0.139621
10.17	6.20508	10.17	-0.208168
10.175	6.00487	10.175	0.375791
10.18	6.48896	10.18	0.200395
10.185	6.86302	10.185	0.0787757
10.19	6.52909	10.19	0.622988
10.195	6.91295	10.195	0.417842
10.2	6.82495	10.2	0.660915
10.205	6.5264	10.205	1.09684
10.21	8.60224	10.21	2.47593
10.215	8.13241	10.215	2.25637
10.22	7.54757	10.22	2.3454
10.225	9.40877	10.225	3.46439
10.23	8.77803	10.23	3.04983
10.235	8.07258	10.235	2.99269
10.24	11.1218	10.24	6.05448
10.245	10.5002	10.245	4.67741
10.25	13.6421	10.25	10.0504
10.255	12.4442	10.255	7.75085
10.26	14.767	10.26	12.819
10.265	13.3369	10.265	9.90904
10.27	12.2757	10.27	7.73701
10.275	13.4228	10.275	10.8486
10.28	11.993	10.28	8.89101
10.285	10.9272	10.285	7.43844
10.29	11.4128	10.29	8.417
10.295	12.5669	10.295	8.41229
10.3	11.4063	10.3	7.15546
10.305	11.1955	10.305	8.90641
10.31	10.3983	10.31	7.57937
10.315	9.80704	10.315	6.5999
10.32	13.2057	10.32	12.0381
10.325	11.9544	10.325	10.0344
10.33	11.0227	10.33	8.5476
10.335	14.1661	10.335	13.6054
10.34	12.3366	10.34	11.7035
10.345	10.7277	10.345	10.5367
10.35	11.0427	10.35	11.4936
10.355	10.0119	10.355	10.1998
10.36	10.9061	10.36	10.916
10.365	12.9892	10.365	16.7544
10.37	11.5103	10.37	14.2925
10.375	14.743	10.375	21.4506
10.38	12.8573	10.38	17.9459
10.385	15.1597	10.385	24.9476
10.39	13.1996	10.39	20.7023
10.395	14.0193	10.395	25.2447
10.4	11.9699	10.4	21.4344
10.405	12.2132	10.405	23.482
10.41	10.6187	10.41	20.2152
10.415	11.4725	10.415	19.0704
10.42	8.29117	10.42	18.7559
10.425	9.72383	10.425	18.0565
10.43	8.76302	10.43	16.2898
10.435	8.93141	10.435	17.431
10.44	8.16805	10.44	15.8993
10.445	7.35455	10.445	15.016
10.45	6.71404	10.45	17.7392
10.455	8.1551	10.455	17.9139
10.46	6.30418	10.46	14.3687
10.465	6.95323	10.465	19.6607
10.47	7.05547	10.47	17.4355
10.475	8.41008	10.475	24.5059
10.48	8.15443	10.48	21.2
10.485	6.30018	10.485	17.0774
10.49	6.82929	10.49	18.7232
10.495	6.33968	10.495	17.5674
10.5	6.59869	10.5	16.0995
10.505	6.28804	10.505	18.8595
10.51	6.55789	10.51	17.1501
10.515	6.7633	10.515	15.8904
10.52	5.90796	10.52	15.9804
10.525	5.64918	10.525	15.6906
10.53	6.46838	10.53	14.4854
10.535	5.95761	10.535	18.0629
10.54	7.0928	10.54	15.9516
10.545	7.86407	10.545	21.1354
10.55	6.73757	10.55	16.8196
10.555	6.44646	10.555	16.3564
10.56	8.37956	10.56	17.2142
10.565	7.70468	10.565	16.7062
10.57	6.40616	10.57	13.8127
10.575	7.89291	10.575	15.8404
10.58	8.6171	10.58	14.4762
10.585	6.49591	10.585	12.8125
10.59	9.41585	10.59	17.0433
10.595	7.90158	10.595	14.0123
10.6	8.67173	10.6	13.1612
10.605	8.54731	10.605	13.2509
10.61	9.1918	10.61	12.6067
10.615	9.83719	10.615	11.9876
10.62	9.09184	10.62	12.779
10.625	9.80097	10.625	12.1307
10.63	8.92756	10.63	9.74521
10.635	10.8919	10.635	11.9956
10.64	9.16644	10.64	10.276
10.645	9.92672	10.645	10.2601
10.65	10.4285	10.65	10.343
10.655	9.50055	10.655	8.40518
10.66	9.61029	10.66	9.47436
10.665	11.2599	10.665	8.7355
10.67	9.32371	10.67	8.05046
10.675	10.7929	10.675	7.94367
10.68	11.5902	10.68	8.19489
10.685	9.63802	10.685	7.62919
10.69	9.42992	10.69	5.94655
10.695	12.0469	10.695	8.57073
10.7	12.1025	10.7	9.17094
10.705	10.742	10.705	7.71925
10.71	11.6911	10.71	7.9895
10.715	10.4784	10.715	6.81268
10.72	9.9632	10.72	5.53359
10.725	12.5913	10.725	8.21911
10.73	11.2284	10.73	6.9615
10.735	10.2136	10.735	6.0088
10.74	10.7966	10.74	7.27884
10.745	10.5581	10.745	5.60318
10.75	10.8032	10.75	7.25113
10.755	11.9291	10.755	7.57206
10.76	10.849	10.76	6.43336
10.765	9.65944	10.765	5.95687
10.77	10.4932	10.77	7.20227
10.775	11.4829	10.775	7.79907
10.78	12.0667	10.78	8.43205
10.785	10.6762	10.785	7.43159
10.79	10.0225	10.79	6.29004
10.795	10.728	10.795	7.56699
10.8	9.70961	10.8	6.76862
10.805	8.94816	10.805	6.1656
10.81	9.71617	10.81	7.70314
10.815	8.98603	10.815	6.85884
10.82	10.1062	10.82	7.88678
10.825	8.58223	10.825	7.71826
10.83	10.2182	10.83	8.1419
10.835	8.78938	10.835	7.81191
10.84	9.05469	10.84	9.55651
10.845	8.95779	10.845	7.85734
10.85	9.06852	10.85	9.72863
10.855	8.6092	10.855	8.37099
10.86	8.26715	10.86	7.34864
10.865	8.5759	10.865	9.34571
10.87	8.2651	10.87	8.08242
10.875	7.64752	10.875	7.51781
10.88	8.37002	10.88	9.2378
10.885	8.12816	10.885	8.00815
10.89	7.32375	10.89	7.70732
10.895	8.77304	10.895	8.75828
10.9	8.453	10.9	7.65015
10.905	7.58998	10.905	7.44049
10.91	8.13131	10.91	9.42386
10.915	7.99499	10.915	8.15039
10.92	7.89525	10.92	7.19127
10.925	7.7603	10.925	9.86132
10.93	6.72764	10.93	9.49204
10.935	7.2851	10.935	11.2124
10.94	7.01537	10.94	9.88731
10.945	8.47591	10.945	10.56
10.95	6.33825	10.95	10.9943
10.955	8.37371	10.955	11.0108
10.96	7.14941	10.96	10.4708
10.965	6.95287	10.965	9.34282
10.97	8.85527	10.97	9.77642
10.975	7.76973	10.975	9.31084
10.98	7.82281	10.98	8.09308
10.985	7.47823	10.985	7.56281
10.99	8.16707	10.99	9.54729
10.995	7.51599	10.995	8.90028
11	7.26657	11	8.17483
11.005	8.02679	11.005	10.0129
11.01	8.05474	11.01	8.63071
11.015	7.36268	11.015	8.30578
11.02	9.23584	11.02	8.99943
11.025	8.36693	11.025	8.49042
11.03	7.23857	11.03	8.58413
11.035	7.50098	11.035	7.5445
11.04	9.36578	11.04	8.42636
11.045	8.25208	11.045	8.29708
11.05	8.28409	11.05	7.33166
11.055	8.31071	11.055	6.60379
11.06	8.89612	11.06	8.82205
11.065	8.793	11.065	7.725
11.07	8.0928	11.07	7.52392
11.075	9.14333	11.075	9.12707
11.08	9.00719	11.08	7.95058
11.085	9.29467	11.085	6.67753
11.09	9.69389	11.09	8.86881
11.095	9.45115	11.095	7.75157
11.1	8.64626	11.1	7.53541
11.105	8.42997	11.105	6.98484
11.11	8.89875	11.11	5.93984
11.115	8.24563	11.115	6.15973
11.12	9.57003	11.12	7.84013
11.125	8.38548	11.125	7.97546
11.13	9.21613	11.13	9.68767
11.135	9.15651	11.135	8.35164
11.14	9.11447	11.14	7.34597
11.145	8.60853	11.145	7.06511
11.15	8.71456	11.15	6.36801
11.155	8.79674	11.155	5.84152
11.16	9.66242	11.16	7.97241
11.165	9.52814	11.165	7.05138
11.17	9.43011	11.17	6.35697
11.175	9.29663	11.175	9.22596
11.18	9.27768	11.18	7.99384
11.185	8.25373	11.185	8.07858
11.19	9.44338	11.19	9.51439
11.195	8.78618	11.195	8.83803
11.2	8.44218	11.2	8.18098
11.205	8.04421	11.205	7.82728
11.21	8.3717	11.21	6.93516
11.215	10.0469	11.215	8.16643
11.22	9.271	11.22	7.81951
11.225	8.92814	11.225	7.31944
11.23	8.81703	11.23	6.79751
11.235	8.97781	11.235	6.16111
11.24	8.71415	11.24	6.06721
11.245	9.31542	11.245	8.52773
11.25	9.36474	11.25	7.47217
11.255	9.01751	11.255	7.06391
11.26	7.80059	11.26	7.71342
11.265	8.2381	11.265	6.84954
11.27	8.74486	11.27	9.35301
11.275	8.57777	11.275	8.47522
11.28	8.83704	11.28	7.43152
11.285	8.40874	11.285	7.27074
11.29	8.71352	11.29	6.52339
11.295	10.2233	11.295	8.01173
11.3	8.21286	11.3	8.96821
11.305	8.57761	11.305	7.81228
11.31	8.46697	11.31	7.32882
11.315	7.90457	11.315	7.44491
11.32	7.96324	11.32	7.05079
11.325	8.39184	11.325	6.36988
11.33	9.13046	11.33	8.77209
11.335	8.89588	11.335	8.05983
11.34	9.10455	11.34	7.14033
11.345	8.01284	11.345	7.69824
11.35	8.05641	11.35	7.25364
11.355	8.47368	11.355	6.5349
11.36	7.77696	11.36	7.00484
11.365	8.91526	11.365	9.02655
11.37	9.12599	11.37	7.88341
11.375	7.64889	11.375	8.66055
11.38	8.17222	11.38	7.61159
11.385	8.18053	11.385	7.20842
11.39	7.55895	11.39	7.53321
11.395	7.7137	11.395	7.15521
11.4	9.87978	11.4	8.15185
11.405	8.60525	11.405	8.49602
11.41	8.51172	11.41	7.89117
11.415	6.94975	11.415	8.92874
11.42	7.26391	11.42	8.22068
11.425	7.4972	11.425	7.69135
11.43	7.04437	11.43	7.92155
11.435	7.32569	11.435	7.47264
11.44	7.53435	11.44	7.13767
11.445	9.35392	11.445	8.55357
11.45	9.06539	11.45	7.96633
11.455	8.84669	11.455	7.52764
11.46	7.42938	11.46	8.45133
11.465	7.99758	11.465	7.51235
11.47	8.03955	11.47	7.19172
11.475	7.44323	11.475	7.57848
11.48	7.61695	11.48	7.24702
11.485	8.13186	11.485	6.61323
11.49	7.50838	11.49	7.14698
11.495	7.66172	11.495	6.92577
11.5	7.7744	11.5	6.76162
11.505	7.2311	11.505	7.26574
11.51	7.44458	11.51	7.02231
11.515	8.88081	11.515	8.89384
11.52	8.06117	11.52	8.89198
11.525	8.69287	11.525	7.64361
11.53	8.54107	11.53	7.33239
11.535	8.18638	11.535	7.33928
11.54	8.15945	11.54	7.10483
11.545	8.13694	11.545	6.93077
11.55	7.49226	11.55	7.42749
11.555	7.6297	11.555	7.17854
11.56	7.73047	11.56	6.99361
11.565	7.17824	11.565	7.48219
11.57	8.0105	11.57	6.60165
11.575	8.00911	11.575	6.56631
11.58	7.38026	11.58	7.16708
11.585	8.80802	11.585	9.04851
11.59	7.98202	11.59	9.05413
11.595	8.60897	11.595	7.81139
11.6	8.4536	11.6	7.50443
11.605	7.70929	11.605	7.90151
11.61	7.77201	11.61	7.57786
11.615	7.81675	11.615	7.33693
11.62	7.84798	11.62	7.15806
11.625	7.8691	11.625	7.02573
11.63	7.88262	11.63	6.9283
11.635	7.89044	11.635	6.85705
11.64	7.89399	11.64	6.80543
11.645	7.89434	11.645	6.76854
11.65	6.87986	11.65	7.75512
11.655	7.12181	11.655	7.49175
11.66	8.96635	11.66	8.96144
11.665	8.69656	11.665	8.41467
11.67	8.49191	11.67	8.00643
11.675	8.33612	11.675	7.70211
11.68	7.59149	11.68	8.10119
11.685	7.65398	11.685	7.77909
11.69	7.69854	11.69	7.53936
11.695	6.71723	11.695	8.37385
11.7	7.60955	11.7	7.37095
11.705	6.40224	11.705	8.49487
11.71	6.97953	11.71	7.85458
11.715	7.16877	11.715	7.61764
11.72	6.6829	11.72	8.06727
11.725	7.17799	11.725	7.54454
11.73	7.30559	11.73	7.39577
11.735	8.43888	11.735	9.57693
11.74	8.25893	11.74	8.94052
11.745	8.74714	11.745	7.83961
11.75	7.86225	11.75	8.26457
11.755	7.81955	11.755	7.96191
11.76	8.41069	11.76	7.11131
11.765	8.22848	11.765	7.09853
11.77	8.08951	11.77	7.09083
11.775	7.98298	11.775	7.08694
11.78	7.90077	11.78	7.08592
11.785	7.44986	11.785	7.47399
11.79	7.49123	11.79	7.38507
11.795	7.51995	11.795	7.32027
11.8	8.16466	11.8	6.64809
11.805	7.01018	11.805	7.78154
11.81	7.14714	11.81	7.62839
11.815	7.87303	11.815	6.88994
11.82	8.83177	11.82	9.25216
11.825	9.1464	11.825	8.12609
11.83	8.75679	11.83	7.90673
11.835	7.83681	11.835	8.36961
11.84	7.7678	11.84	8.09541
11.845	7.71374	11.845	7.89169
11.85	7.67089	11.85	7.74082
11.855	8.26193	11.855	7.00411
11.86	7.69269	11.86	7.46373
11.865	8.2708	11.865	6.80301
11.87	8.0788	11.87	6.93268
11.875	7.9325	11.875	7.03185
11.88	6.80805	11.88	8.12058
11.885	7.59301	11.885	7.30845
11.89	7.55616	11.89	7.32454
11.895	8.56612	11.895	9.62942
11.9	8.29369	11.9	9.08587
11.905	8.71255	11.905	8.05467
11.91	8.40113	11.91	7.9065
11.915	8.16527	11.915	7.79732
11.92	7.98608	11.92	7.71739
11.925	8.47487	11.925	7.03392
11.93	8.2159	11.93	7.14654
11.935	8.25791	11.935	6.99443
11.94	8.04571	11.94	7.12371
11.945	7.88426	11.945	7.22263
11.95	7.37393	11.95	7.68572
11.955	7.37075	11.955	7.65313
11.96	7.99155	11.96	7.00517
11.965	6.81914	11.965	8.15685
11.97	9.23355	11.97	9.05736
11.975	9.15486	11.975	8.32015
11.98	8.71169	11.98	8.15109
11.985	9.00251	11.985	7.4008
11.99	8.59506	11.99	7.46333
11.995	8.2872	11.995	7.51222
12	8.29254	12	7.31233
12.005	8.05286	12.005	7.40581
12.01	7.87081	12.01	7.4779
12.015	8.35746	12.015	6.90848
12.02	7.70994	12.02	7.49361
12.025	8.22936	12.025	6.92711
12.03	7.99336	12.03	7.12749
12.035	7.42712	12.035	7.66671
12.04	8.0075	12.04	7.06577
12.045	7.43027	12.045	7.62727
12.05	7.37692	12.05	7.66852
12.055	7.33462	12.055	7.70145
12.06	7.92608	12.06	7.10266
12.065	9.4095	12.065	8.94423
12.07	8.8689	12.07	8.67652
12.075	9.08665	12.075	7.85227
12.08	7.61199	12.08	8.8718
12.085	8.13433	12.085	8.00784
12.09	7.90053	12.09	7.98516
12.095	8.34839	12.095	7.34469
12.1	7.67178	12.1	7.87657
12.105	8.16939	12.105	7.27015
12.11	7.91704	12.11	7.44062
12.115	7.96403	12.115	7.33196
12.12	8.38106	12.12	6.86841
12.125	7.68134	12.125	7.53298
12.13	7.53613	12.13	7.65157
12.135	8.05042	12.135	7.11705
12.14	7.81058	12.14	7.34145
12.145	8.25389	12.145	6.88629
12.15	7.96082	12.15	7.17021
12.155	8.36421	12.155	6.75969
12.16	7.65425	12.16	7.46405
12.165	8.12684	12.165	6.98699
12.17	7.85572	12.17	7.25449
12.175	8.27557	12.175	6.83166
12.18	8.59038	12.18	6.51435
12.185	7.81398	12.185	7.28862
12.19	8.23674	12.19	6.86399
12.195	7.92825	12.195	7.17082
12.2	7.93312	12.2	7.16443
12.205	7.69308	12.205	7.40307
12.21	7.7493	12.21	7.34555
12.215	8.17324	12.215	6.92036
12.22	7.86563	12.22	7.22676
12.225	7.87117	12.225	7.22006
12.23	7.63162	12.23	7.45847
12.235	8.07515	12.235	7.01382
12.24	7.78223	12.24	7.30564
12.245	7.79878	12.245	7.288
12.25	9.85837	12.25	8.55812
12.255	9.12663	12.255	8.48514
12.26	9.20102	12.26	7.80697
12.265	8.24432	12.265	8.31061
12.27	8.53187	12.27	7.68305
12.275	8.12198	12.275	7.8377
12.28	8.43777	12.28	7.33026
12.285	8.28759	12.285	7.33647
12.29	7.93127	12.29	7.58459
12.295	7.90029	12.295	7.53419
12.3	8.25885	12.3	7.11437
12.305	7.90222	12.305	7.42484
12.31	7.871	12.31	7.4212
12.315	7.84243	12.315	7.4234
12.32	7.57732	12.32	7.66851
12.325	7.61474	12.325	7.61587
12.33	7.39912	12.33	7.81985
12.335	7.8606	12.335	7.3494
12.34	7.81969	12.34	7.38336
12.345	7.54533	12.345	7.6523
12.35	7.96275	12.35	7.23057
12.355	7.88879	12.355	7.30108
12.36	7.58964	12.36	7.59742
12.365	7.98847	12.365	7.19625
12.37	8.28752	12.37	6.89522
12.375	7.4993	12.375	7.68173
12.38	7.9132	12.38	7.26632
12.385	7.59807	12.385	7.58009
12.39	7.59797	12.39	7.57895
12.395	7.97969	12.395	7.19608
12.4	7.25347	12.4	7.9212
12.405	7.71386	12.405	7.45976
12.41	7.67213	12.41	7.50047
12.415	7.0102	12.415	8.16142
12.42	7.51881	12.42	7.65185
12.425	7.51324	12.425	7.65647
12.43	7.26537	12.43	7.90341
12.435	7.31571	12.435	7.85214
12.44	7.73525	12.44	7.43167
12.445	7.0374	12.445	8.1286
12.45	7.51907	12.45	7.64602
12.455	7.88024	12.455	7.28394
12.46	7.52556	12.46	7.63771
12.465	7.49579	12.465	7.66657
12.47	7.22977	12.47	7.93169
12.475	7.65344	12.475	7.50711
12.48	7.58417	12.48	7.57548
12.485	7.28851	12.485	7.87023
12.49	7.30301	12.49	7.85482
12.495	7.69567	12.495	7.46126
12.5	7.60314	12.5	7.55289
12.505	7.29003	12.505	7.86509
12.51	7.29145	12.51	7.86277
12.515	7.67429	12.515	7.47902
12.52	7.33586	12.52	7.81655
12.525	7.31827	12.525	7.83323
12.53	7.29992	12.53	7.85069
12.535	7.66793	12.535	7.48177
12.54	6.93143	12.54	8.21737
12.545	7.3841	12.545	7.76379
12.55	7.72352	12.55	7.42347
12.555	7.35252	12.555	7.79357
12.56	7.31051	12.56	7.83468
12.565	7.66077	12.565	7.48351
12.57	7.29791	12.57	7.84547
12.575	7.64894	12.575	7.49353
12.58	7.52518	12.58	7.61639
12.585	7.81414	12.585	7.32653
12.59	7.01834	12.59	8.12142
12.595	7.42654	12.595	7.71232
12.6	7.7326	12.6	7.40536
12.605	8.61503	12.605	9.85282
12.61	8.63102	12.61	9.03227
12.615	8.256	12.615	8.80369
12.62	8.35652	12.62	8.25027
12.625	7.41942	12.625	8.84752
12.63	7.72166	12.63	8.2902
12.635	7.94827	12.635	7.8721
12.64	7.10572	12.64	8.57083
12.645	7.47888	12.645	8.08963
12.65	7.75867	12.65	7.72862
12.655	7.96845	12.655	7.45774
12.66	7.11328	12.66	8.2669
12.665	7.47696	12.665	7.86851
12.67	7.74965	12.67	7.56961
12.675	7.9541	12.675	7.34532
12.68	7.09493	12.68	8.18942
12.685	7.45561	12.685	7.81724
12.69	7.72605	12.69	7.53799
12.695	7.54186	12.695	7.71539
12.7	7.78551	12.7	7.46646
12.705	7.34269	12.705	7.90513
12.71	7.24682	12.71	7.9977
12.715	7.55671	12.715	7.68515
12.72	7.78905	12.72	7.45062
12.725	7.33775	12.725	7.9001
12.73	7.23553	12.73	8.00077
12.735	7.54065	12.735	7.69429
12.74	7.76941	12.74	7.46433
12.745	7.31542	12.745	7.91722
12.75	7.21118	12.75	8.02046
12.755	7.51479	12.755	7.71591
12.76	7.11693	12.76	8.11287
12.765	7.44174	12.765	7.78721
12.77	7.68526	12.77	7.54286
12.775	7.48088	12.775	7.74643
12.78	7.70938	12.78	7.51713
12.785	7.25519	12.785	7.97053
12.79	7.53775	12.79	7.68721
12.795	7.36264	12.795	7.86155
12.8	6.98761	12.8	8.23581
12.805	7.32953	12.805	7.89313
12.81	7.58589	12.81	7.63601
12.815	7.77808	12.815	7.44307
12.82	7.92214	12.82	7.29825
12.825	7.01768	12.825	8.20196
12.83	7.34439	12.83	7.8745
12.835	7.58934	12.835	7.62879
12.84	7.14749	12.84	8.06989
12.845	7.43929	12.845	7.77734
12.85	7.65806	12.85	7.55782
12.855	6.80963	12.855	8.4055
12.86	7.17836	12.86	8.03602
12.865	9.12022	12.865	9.4242
12.87	8.92566	12.87	8.81436
12.875	8.77967	12.875	8.3569
12.88	8.04464	12.88	8.63919
12.885	8.11657	12.885	8.22756
12.89	8.17045	12.89	7.91875
12.895	8.2108	12.895	7.68706
12.9	7.61551	12.9	8.13869
12.905	7.40531	12.905	8.241
12.91	7.62945	12.91	7.93579
12.915	7.7975	12.915	7.7068
12.92	7.92346	12.92	7.53497
12.925	7.39239	12.925	8.0315
12.93	7.61729	12.93	7.78054
12.935	7.7859	12.935	7.59224
12.94	7.91229	12.94	7.45093
12.945	8.00701	12.945	7.34487
12.95	8.07799	12.95	7.26524
12.955	7.50567	12.955	7.83092
12.96	7.69964	12.96	7.63182
12.965	7.84504	12.965	7.48242
12.97	7.95403	12.97	7.37029
12.975	8.0357	12.975	7.28611
12.98	7.47141	12.98	7.84837
12.985	7.67139	12.985	7.64672
12.99	7.82131	12.99	7.49539
12.995	8.32062	12.995	6.99488
13	7.6877	13	7.62676
13.005	7.8362	13.005	7.47731
13.01	7.94751	13.01	7.36515
13.015	8.03092	13.015	7.28095
13.02	8.09341	13.02	7.21772
13.025	8.14021	13.025	7.17022
13.03	7.54975	13.03	7.76
13.035	7.73012	13.035	7.57898
13.04	7.86532	13.04	7.44314
13.045	7.96664	13.045	7.34118
13.05	8.04257	13.05	7.26463
13.055	8.09944	13.055	7.20714
13.06	8.14203	13.06	7.16395
13.065	7.54841	13.065	7.75696
13.07	7.7264	13.07	7.57836
13.075	7.85982	13.075	7.44434
13.08	7.95981	13.08	7.34375
13.085	8.03474	13.085	7.26822
13.09	7.85232	13.09	7.45004
13.095	7.95685	13.095	7.34492
13.1	8.03517	13.1	7.266
13.105	8.09383	13.105	7.20673
13.11	8.13776	13.11	7.16221
13.115	8.17063	13.115	7.12874
13.12	7.56973	13.12	7.72904
13.125	7.74226	13.125	7.55592
13.13	7.87158	13.13	7.42601
13.135	7.96849	13.135	7.32849
13.14	8.0411	13.14	7.25528
13.145	8.09549	13.145	7.2003
13.15	8.1362	13.15	7.15899
13.155	8.16667	13.155	7.12793
13.16	7.56396	13.16	7.73004
13.165	7.73512	13.165	7.55828
13.17	7.86342	13.17	7.42938
13.175	7.95957	13.175	7.33264
13.18	8.03161	13.18	7.26
13.185	8.08556	13.185	7.20545
13.19	8.12595	13.19	7.16447
13.195	8.15617	13.195	7.13365
13.2	7.55328	13.2	7.73595
13.205	7.72431	13.205	7.56433
13.21	7.8525	13.21	7.43554
13.215	7.94857	13.215	7.33887
13.22	8.02055	13.22	7.2663
13.225	8.07445	13.225	7.21179
13.23	8.11481	13.23	7.17084
13.235	8.145	13.235	7.14006
13.24	8.16756	13.24	7.11689
13.245	8.18441	13.245	7.09945
13.25	7.57149	13.25	7.71177
13.255	7.735	13.255	7.54767
13.26	7.85755	13.26	7.42452
13.265	7.94939	13.265	7.33209
13.27	8.01819	13.27	7.26269
13.275	8.06971	13.275	7.21057
13.28	8.10828	13.28	7.17141
13.285	8.13713	13.285	7.14196
13.29	8.15868	13.29	7.11981
13.295	7.5493	13.295	7.7286
13.3	7.71545	13.3	7.56185
13.305	7.83999	13.305	7.43672
13.31	7.93331	13.31	7.34279
13.315	8.00323	13.315	7.27228
13.32	7.66864	13.32	7.60627
13.325	7.79949	13.325	7.47483
13.33	7.89754	13.33	7.37617
13.335	7.97101	13.335	7.30211
13.34	7.40055	13.34	7.87198
13.345	7.5959	13.345	7.67603
13.35	7.74233	13.35	7.529
13.355	7.85208	13.355	7.41866
13.36	7.93431	13.36	7.33583
13.365	7.9959	13.365	7.27364
13.37	7.65507	13.37	7.61387
13.375	7.78124	13.375	7.48711
13.38	7.87578	13.38	7.39197
13.385	7.94661	13.385	7.32055
13.39	7.99965	13.39	7.26691
13.395	8.03936	13.395	7.22661
13.4	8.06906	13.4	7.19631
13.405	7.07882	13.405	8.18595
13.41	7.34121	13.41	7.92297
13.415	7.53792	13.415	7.72566
13.42	7.68537	13.42	7.57761
13.425	7.79588	13.425	7.46651
13.43	7.87868	13.43	7.38311
13.435	7.9407	13.435	7.32049
13.44	7.98714	13.44	7.27346
13.445	8.02188	13.445	7.23811
13.45	8.04786	13.45	7.21154
13.455	7.68032	13.455	7.57848
13.46	7.78645	13.46	7.47176
13.465	7.86597	13.465	7.39164
13.47	7.92553	13.47	7.33149
13.475	7.97012	13.475	7.2863
13.48	7.61653	13.48	7.63929
13.485	7.73313	13.485	7.52209
13.49	7.19502	13.49	8.05961
13.495	7.41463	13.495	7.83941
13.5	7.1923	13.5	8.06113
13.505	7.40735	13.505	7.84549
13.51	7.56855	13.51	7.68369
13.515	7.68937	13.515	7.56228
13.52	7.7799	13.52	7.47115
13.525	7.84772	13.525	7.40273
13.53	7.89851	13.53	7.35135
13.535	7.54957	13.535	7.69969
13.54	7.66965	13.54	7.57901
13.545	7.75963	13.545	7.48844
13.55	7.82703	13.55	7.42044
13.555	7.87751	13.555	7.36937
13.56	7.91528	13.56	7.331
13.565	7.94353	13.565	7.30215
13.57	7.57769	13.57	7.6674
13.575	7.68509	13.575	7.5594
13.58	7.76556	13.58	7.47833
13.585	7.43889	13.585	7.8044
13.59	7.57567	13.59	7.66703
13.595	7.67818	13.595	7.56393
13.6	7.75497	13.6	7.48653
13.605	7.81249	13.605	7.42842
13.61	7.23007	13.61	8.01025
13.615	8.04192	13.615	7.1978
13.62	8.02746	13.62	7.21166
13.625	7.39105	13.625	7.84747
13.63	8.16241	13.63	7.07551
13.635	7.73064	13.635	7.50669
13.64	7.16311	13.64	8.07362
13.645	7.36065	13.645	7.87548
13.65	8.13421	13.65	7.10133
13.655	8.09103	13.655	7.14392
13.66	7.43308	13.66	7.80127
13.665	7.5628	13.665	7.67095
13.67	7.89855	13.67	7.3346
13.675	7.2834	13.675	7.94916
13.68	7.44522	13.68	7.78674
13.685	7.5665	13.685	7.66486
13.69	7.65739	13.69	7.57338
13.695	7.72547	13.695	7.5047
13.7	7.77645	13.7	7.45313
13.705	7.8146	13.705	7.41438
13.71	7.84313	13.71	7.38525
13.715	7.86445	13.715	7.36334
13.72	7.88035	13.72	7.34683
13.725	7.50526	13.725	7.72134
13.73	7.60571	13.73	7.62028
13.735	7.68098	13.735	7.54442
13.74	7.73734	13.74	7.48746
13.745	7.77954	13.745	7.44467
13.75	7.8111	13.75	7.41251
13.755	7.83469	13.755	7.38832
13.76	7.46535	13.76	7.75706
13.765	7.57014	13.765	7.65168
13.77	7.64864	13.77	7.57258
13.775	7.70744	13.775	7.51319
13.78	7.75145	13.78	7.46858
13.785	7.78438	13.785	7.43505
13.79	7.809	13.79	7.40984
13.795	7.82738	13.795	7.39086
13.8	7.84108	13.8	7.37656
13.805	7.85128	13.805	7.36577
13.81	7.4719	13.81	7.74455
13.815	7.56914	13.815	7.64671
13.82	7.642	13.82	7.57326
13.825	7.69656	13.825	7.5181
13.83	8.36288	13.83	6.85119
13.835	8.23926	13.835	6.97421
13.84	7.52099	13.84	7.69188
13.845	8.23096	13.845	6.98132
13.85	7.75313	13.85	7.45855
13.855	7.77655	13.855	7.43453
13.86	7.16855	13.86	8.04194
13.865	7.96122	13.865	7.24867
13.87	7.93237	13.87	7.27692
13.875	7.91065	13.875	7.29804
13.88	7.89428	13.88	7.31382
13.885	7.88193	13.885	7.32558
13.89	7.87258	13.89	7.33433
13.895	7.86548	13.895	7.34082
13.9	7.86008	13.9	7.34563
13.905	7.85595	13.905	7.34916
13.91	7.85277	13.91	7.35174
13.915	7.85031	13.915	7.35361
13.92	7.46143	13.92	7.74189
13.925	7.55156	13.925	7.65117
13.93	7.61908	13.93	7.58306
13.935	7.66963	13.935	7.5319
13.94	7.70747	13.94	7.49347
13.945	7.73576	13.945	7.46458
13.95	7.75691	13.95	7.44284
13.955	7.38573	13.955	7.81342
13.96	7.48914	13.96	7.70941
13.965	7.56661	13.965	7.63134
13.97	7.62464	13.97	7.57272
13.975	7.66808	13.975	7.52869
13.98	7.70057	13.98	7.49559
13.985	7.72487	13.985	7.47071
13.99	7.743	13.99	7.45197
13.995	7.75653	13.995	7.43785
14	7.76659	14	7.42719
14.005	7.38711	14.005	7.80608
14.01	7.48428	14.01	7.70831
14.015	8.18256	14.015	7.00943
14.02	7.45744	14.02	7.73396
14.025	8.16227	14.025	7.02853
14.03	8.06754	14.03	7.12266
14.035	7.99641	14.035	7.19319
14.04	7.94299	14.04	7.24602
14.045	7.51589	14.045	7.67252
14.05	7.57736	14.05	7.61046
14.055	7.62337	14.055	7.56384
14.06	7.65781	14.06	7.52881
14.065	7.68355	14.065	7.50247
14.07	7.70278	14.07	7.48265
14.075	7.71713	14.075	7.46771
14.08	7.34086	14.08	7.84338
14.085	7.44044	14.085	7.7432
14.09	7.51505	14.09	7.668
14.095	9.23632	14.095	9.27692
14.1	8.87632	14.1	8.83267
14.105	8.60626	14.105	8.49943
14.11	9.02914	14.11	7.62397
14.115	8.33601	14.115	7.97755
14.12	8.19798	14.12	7.86081
14.125	8.09439	14.125	7.77321
14.13	8.01664	14.13	7.70746
14.135	7.95827	14.135	7.65809
14.14	7.52748	14.14	8.00796
14.145	7.5862	14.145	7.88845
14.15	7.63018	14.15	7.79876
14.155	7.6631	14.155	7.73144
14.16	7.68773	14.16	7.68091
14.165	7.3192	14.165	8.0299
14.17	7.42461	14.17	7.90973
14.175	7.50361	14.175	7.81955
14.18	8.18827	14.18	7.12638
14.185	8.07844	14.185	7.22972
14.19	7.99601	14.19	7.30718
14.195	7.93413	14.195	7.36522
14.2	7.88766	14.2	7.4087
14.205	7.85275	14.205	7.44126
14.21	7.8265	14.21	7.46562
14.215	7.41982	14.215	7.87079
14.22	7.49661	14.22	7.79275
14.225	7.55414	14.225	7.73417
14.23	7.59724	14.23	7.69018
14.235	7.6295	14.235	7.65713
14.24	7.89217	14.24	7.39376
14.245	7.84771	14.245	7.43759
14.25	7.18882	14.25	8.09589
14.255	7.94335	14.255	7.34081
14.26	7.88592	14.26	7.39772
14.265	7.84279	14.265	7.44034
14.27	7.81038	14.27	7.47226
14.275	7.78602	14.275	7.49615
14.28	7.76769	14.28	7.51401
14.285	7.36694	14.285	7.9143
14.29	7.44818	14.29	7.8326
14.295	7.50906	14.295	7.77127
14.3	7.55465	14.3	7.72522
14.305	8.21428	14.305	7.06515
14.31	8.08566	14.31	7.19331
14.315	7.98915	14.315	7.28938
14.32	7.9167	14.32	7.36138
14.325	7.47537	14.325	7.80227
14.33	7.52617	14.33	7.75102
14.335	7.56422	14.335	7.71253
14.34	7.5927	14.34	7.68361
14.345	7.614	14.345	7.66186
14.35	7.62992	14.35	7.6455
14.355	7.6418	14.355	7.63317
14.36	8.27614	14.36	6.99839
14.365	8.12856	14.365	7.14552
14.37	8.01783	14.37	7.25582
14.375	7.93472	14.375	7.33848
14.38	7.48538	14.38	7.78738
14.385	7.53019	14.385	7.74212
14.39	7.56374	14.39	7.70813
14.395	7.58885	14.395	7.68258
14.4	7.60762	14.4	7.66336
14.405	7.62165	14.405	7.64889
14.41	7.24517	14.41	8.02493
14.415	7.34461	14.415	7.92504
14.42	7.41914	14.42	7.85007
14.425	8.10046	14.425	7.16831
14.43	7.98813	14.43	7.2802
14.435	7.90382	14.435	7.36406
14.44	7.84053	14.44	7.42691
14.445	7.79302	14.445	7.47398
14.45	7.75732	14.45	7.50923
14.455	7.7305	14.455	7.53561
14.46	7.71032	14.46	7.55534
14.465	7.69514	14.465	7.57009
14.47	7.68369	14.47	7.58109
14.475	7.67506	14.475	7.58928
14.48	8.294	14.48	6.96989
14.485	7.74794	14.485	7.51551
14.49	7.72021	14.49	7.5428
14.495	7.69935	14.495	7.56321
14.5	7.68365	14.5	7.57847
14.505	7.67183	14.505	7.58985
14.51	7.66291	14.51	7.59833
14.515	7.65616	14.515	7.60463
14.52	7.65105	14.52	7.6093
14.525	7.64716	14.525	7.61275
14.53	7.64419	14.53	7.61528
14.535	8.26739	14.535	6.99163
14.54	8.11146	14.54	7.14712
14.545	7.99446	14.545	7.26367
14.55	7.90666	14.55	7.35103
14.555	7.84076	14.555	7.41649
14.56	7.79127	14.56	7.46553
14.565	7.75411	14.565	7.50225
14.57	7.33924	14.57	7.91668
14.575	7.4099	14.575	7.84558
14.58	7.46284	14.58	7.79219
14.585	7.50249	14.585	7.7521
14.59	7.53218	14.59	7.72197
14.595	8.17987	14.595	7.07383
14.6	8.04231	14.6	7.21095
14.605	7.9391	14.605	7.31372
14.61	7.86163	14.61	7.39074
14.615	7.80348	14.615	7.44845
14.62	7.75981	14.62	7.49167
14.625	7.72701	14.625	7.52403
14.63	7.70236	14.63	7.54824
14.635	7.68382	14.635	7.56634
14.64	7.66986	14.64	7.57985
14.645	7.65934	14.645	7.58993
14.65	7.6514	14.65	7.59743
14.655	7.64539	14.655	7.603
14.66	7.64083	14.66	7.60711
14.665	7.63736	14.665	7.61014
14.67	7.6347	14.67	7.61235
14.675	7.63266	14.675	7.61395
14.68	8.25656	14.68	6.98961
14.685	7.71421	14.685	7.53152
14.69	7.68926	14.69	7.55602
14.695	7.6705	14.695	7.57434
14.7	7.65638	14.7	7.58802
14.705	7.64573	14.705	7.59822
14.71	7.6377	14.71	7.60581
14.715	7.63163	14.715	7.61144
14.72	7.62702	14.72	7.61561
14.725	7.62351	14.725	7.61867
14.73	7.62083	14.73	7.62091
14.735	7.61877	14.735	7.62253
14.74	7.61717	14.74	7.62368
14.745	7.61592	14.745	7.62449
14.75	8.24041	14.75	6.99955
14.755	8.08546	14.755	7.15406
14.76	7.9692	14.76	7.26988
14.765	7.495	14.765	7.74363
14.77	7.52117	14.77	7.71702
14.775	7.54075	14.775	7.697
14.78	7.55538	14.78	7.68193
14.785	7.5663	14.785	7.67056
14.79	7.57445	14.79	7.66197
14.795	7.5805	14.795	7.65547
14.8	7.585	14.8	7.65054
14.805	7.58832	14.805	7.64677
14.81	8.21624	14.81	7.01841
14.815	7.43837	14.815	7.79583
14.82	7.4782	14.82	7.75556
14.825	9.7989	14.825	8.76522
14.83	9.26522	14.83	8.49479
14.835	8.86494	14.835	8.29193
14.84	8.56469	14.84	8.13975
14.845	8.33948	14.845	8.02556
14.85	8.17054	14.85	7.93988
14.855	8.04381	14.855	7.87558
14.86	7.94873	14.86	7.82731
14.865	7.87739	14.865	7.79107
14.87	7.82385	14.87	7.76384
14.875	7.78367	14.875	7.74338
14.88	7.36656	14.88	8.11494
14.885	7.43556	14.885	8.0117
14.89	7.48728	14.89	7.93423
14.895	8.15152	14.895	7.2506
14.9	8.0264	14.9	7.36111
14.905	7.93253	14.905	7.44395
14.91	7.8621	14.91	7.50603
14.915	7.80925	14.915	7.55255
14.92	7.76958	14.92	7.5874
14.925	7.7398	14.925	7.61349
14.93	7.71743	14.93	7.63301
14.935	7.70063	14.935	7.64762
14.94	7.688	14.94	7.65852
14.945	7.6785	14.945	7.66666
14.95	7.67135	14.95	7.67272
14.955	7.66595	14.955	7.67722
14.96	7.66187	14.96	7.68055
14.965	7.65879	14.965	7.68301
14.97	7.65645	14.97	7.6848
14.975	8.28014	14.975	7.06063
14.98	8.12461	14.98	7.21573
14.985	8.00793	14.985	7.332
14.99	7.9204	14.99	7.41917
14.995	7.85472	14.995	7.4845
15	20.5678	15	21.0697
15.005	21.0269	15.005	20.6452
15.01	20.9936	15.01	20.7131
15.015	20.973	15.015	20.7682
15.02	20.9619	15.02	20.8139
15.025	20.9579	15.025	20.8526
15.03	20.9593	15.03	20.8858
15.035	20.9646	15.035	20.9151
15.04	19.933	15.04	18.6505
15.045	20.1913	15.045	19.2305
15.05	20.0024	15.05	20.0568
15.055	20.2468	15.055	20.2989
15.06	20.4345	15.06	20.4848
15.065	20.5796	15.065	20.6285
15.07	20.6927	15.07	20.7406
15.075	20.7819	15.075	20.8289
15.08	20.8531	15.08	20.8995
15.085	21.5362	15.085	20.3313
15.09	21.4297	15.09	20.5326
15.095	19.6887	15.095	19.0226
15.1	20.0381	15.1	19.5452
15.105	20.3045	15.105	19.9414
15.11	20.5086	15.11	20.2429
15.115	20.6659	15.115	20.4733
15.12	20.7883	15.12	20.6503
15.125	21.5098	15.125	20.1619
15.13	19.7665	15.13	18.7578
15.135	20.1143	15.135	19.3598
15.14	20.3794	15.14	19.8156
15.145	18.9171	15.145	18.4963
15.15	20.101	15.15	18.5365
15.155	19.983	15.155	19.5811
15.16	18.6152	15.16	18.3215
15.165	19.2445	15.165	19.0319
15.17	19.0677	15.17	16.8911
15.175	18.5727	15.175	18.9582
15.18	16.5055	15.18	15.5513
15.185	17.3993	15.185	17.1639
15.19	17.2753	15.19	15.8452
15.195	16.7872	15.195	15.2305
15.2	17.5962	15.2	16.9045
15.205	17.0217	15.205	16.0188
15.21	16.726	15.21	15.1985
15.215	18.0159	15.215	16.3816
15.22	16.0407	15.22	13.5582
15.225	16.1393	15.225	16.4723
15.23	16.7606	15.23	14.7878
15.235	14.593	15.235	12.8063
15.24	14.7059	15.24	12.8625
15.245	16.204	15.245	14.8008
15.25	12.7223	15.25	10.8755
15.255	13.2589	15.255	11.3659
15.26	11.5055	15.26	10.5377
15.265	12.6975	15.265	10.6899
15.27	12.9577	15.27	11.4167
15.275	10.4368	15.275	7.99477
15.28	10.5885	15.28	9.96813
15.285	11.9403	15.285	10.1886
15.29	9.37623	15.29	7.24874
15.295	10.3623	15.295	8.71664
15.3	8.14719	15.3	6.08895
15.305	7.72949	15.305	6.12552
15.31	9.29471	15.31	7.55434
15.315	8.55088	15.315	7.19098
15.32	10.0199	15.32	8.17139
15.325	10.3418	15.325	9.66448
15.33	8.01023	15.33	6.67362
15.335	9.1704	15.335	8.10302
15.34	10.0294	15.34	9.16393
15.345	7.3318	15.345	6.61767
15.35	8.59919	15.35	7.99854
15.355	9.53853	15.355	9.02297
15.36	8.95338	15.36	7.72769
15.365	8.10689	15.365	7.11231
15.37	9.11163	15.37	8.29034
15.375	8.18848	15.375	7.49712
15.38	7.47027	15.38	6.87632
15.385	8.57112	15.385	8.05019
15.39	6.05455	15.39	5.58835
15.395	7.45746	15.395	7.03226
15.4	8.49815	15.4	8.10368
15.405	4.27098	15.405	3.89951
15.41	6.04171	15.41	5.68745
15.415	3.64042	15.415	4.07292
15.42	5.89839	15.42	5.38331
15.425	7.19834	15.425	6.73626
15.43	3.16541	15.43	2.74305
15.435	5.08163	15.435	4.68901
15.44	5.22855	15.44	4.08432
15.445	2.87821	15.445	2.70785
15.45	3.12182	15.45	2.91809
15.455	-0.0526905	15.455	-0.281478
15.46	2.89405	15.46	1.87254
15.465	4.32328	15.465	4.24481
15.47	1.15579	15.47	0.246936
15.475	3.33887	15.475	2.57092
15.48	4.96404	15.48	4.30174
15.485	0.936049	15.485	0.830012
15.49	3.09691	15.49	2.92522
15.495	1.13598	15.495	1.39208
15.5	2.80922	15.5	3.67721
15.505	4.43369	15.505	4.99684
15.51	2.69585	15.51	2.25643
15.515	4.29999	15.515	3.87234
15.52	5.49067	15.52	5.07182
15.525	5.09279	15.525	3.90661
15.53	5.42544	15.53	5.67843
15.535	6.28571	15.535	6.37149
15.54	3.97454	15.54	3.16099
15.545	5.53545	15.545	4.03722
15.55	5.92473	15.55	5.45057
15.555	4.68201	15.555	4.68921
15.56	6.01656	15.56	5.12804
15.565	6.62293	15.565	5.82633
15.57	4.12117	15.57	2.61958
15.575	5.15203	15.575	3.88539
15.58	4.247	15.58	3.15655
15.585	4.96778	15.585	4.48651
15.59	5.73694	15.59	5.22972
15.595	5.02252	15.595	3.72191
15.6	5.74284	15.6	4.61089
15.605	6.27018	15.605	5.2647
15.61	5.13578	15.61	3.92829
15.615	5.78244	15.615	4.70435
15.62	6.25446	15.62	5.27338
15.625	7.36937	15.625	4.91324
15.63	7.4288	15.63	5.39381
15.635	7.46033	15.635	5.74118
15.64	5.56699	15.64	4.56175
15.645	6.02618	15.645	5.07355
15.65	5.46596	15.65	3.00496
15.655	5.9198	15.655	3.85497
15.66	6.247	15.66	4.47927
15.665	6.24068	15.665	5.17282
15.67	6.85107	15.67	5.05138
15.675	7.30072	15.675	4.94197
15.68	5.96438	15.68	3.17616
15.685	8.27021	15.685	5.1497
15.69	7.95353	15.69	5.34751
15.695	7.70271	15.695	5.48253
15.7	9.55361	15.7	6.8489
15.705	8.65717	15.705	6.82983
15.71	6.93444	15.71	4.50841
15.715	8.56343	15.715	6.45209
15.72	9.78629	15.72	7.91095
15.725	8.14765	15.725	4.9015
15.73	9.4578	15.73	6.71098
15.735	9.16304	15.735	6.01681
15.74	10.2121	15.74	7.52998
15.745	8.709	15.745	7.62598
15.75	10.4824	15.75	8.10114
15.755	9.67322	15.755	7.26799
15.76	10.5778	15.76	8.43548
15.765	9.59185	15.765	7.6467
15.77	9.22583	15.77	6.65465
15.775	10.2213	15.775	7.94433
15.78	9.30353	15.78	7.24715
15.785	10.267	15.785	8.37611
15.79	11.3776	15.79	8.83682
15.795	10.1642	15.795	7.89977
15.8	10.906	15.8	8.8488
15.805	11.4633	15.805	9.56149
15.81	10.8422	15.81	7.80606
15.815	10.7796	15.815	9.39004
15.82	11.3567	15.82	9.95565
15.825	11.7905	15.825	10.3808
15.83	11.0769	15.83	8.40963
15.835	9.90479	15.835	7.54093
15.84	10.6775	15.84	8.54116
15.845	11.2579	15.845	9.29221
15.85	10.0287	15.85	8.19096
15.855	10.7586	15.855	9.01676
15.86	11.3068	15.86	9.63696
15.865	11.3319	15.865	10.4899
15.87	11.7335	15.87	10.7486
15.875	10.3702	15.875	9.27805
15.88	10.9994	15.88	9.82687
15.885	11.4721	15.885	10.2393
15.89	9.77522	15.89	9.27102
15.895	10.5361	15.895	9.81463
15.9	11.3462	15.9	9.98462
15.905	11.7131	15.905	10.3543
15.91	10.3237	15.91	8.96701
15.915	10.9334	15.915	9.57821
15.92	11.0046	15.92	10.4243
15.925	11.0536	15.925	11.0648
15.93	9.80771	15.93	9.49869
15.935	10.138	15.935	10.3627
15.94	11.0069	15.94	10.3911
15.945	11.418	15.945	10.6545
15.95	9.67475	15.95	9.57446
15.955	10.4008	15.955	10.0342
15.96	10.5592	15.96	10.7666
15.965	9.24687	15.965	9.41791
15.97	9.66775	15.97	10.3045
15.975	7.92674	15.975	9.69674
15.98	9.03634	15.98	10.1288
15.985	7.81693	15.985	9.17513
15.99	9.17438	15.99	9.49105
15.995	9.17789	15.995	10.744
16	9.94496	16	10.9206
16.005	8.46865	16.005	9.77537
16.01	9.00792	16.01	10.5731
16.015	9.79493	16.015	10.7901
16.02	8.33355	16.02	9.67517
16.025	9.27095	16.025	10.1086
16.03	10.2132	16.03	10.1958
16.035	8.62684	16.035	9.22482
16.04	9.08353	16.04	10.1532
16.045	9.42163	16.045	10.8552
16.05	8.00538	16.05	9.72197
16.055	9.60208	16.055	9.51623
16.06	9.79002	16.06	10.3728
16.065	9.92654	16.065	11.0208
16.07	8.3591	16.07	9.8472
16.075	8.82995	16.075	10.6235
16.08	9.80411	16.08	10.586
16.085	8.62855	16.085	9.13441
16.09	8.62448	16.09	10.4711
16.095	7.72037	16.095	9.04505
16.1	8.30682	16.1	10.0139
16.105	9.36764	16.105	10.1207
16.11	7.8701	16.11	9.16431
16.115	8.78026	16.115	9.71658
16.12	9.46345	16.12	10.1313
16.125	9.58947	16.125	10.8298
16.13	10.0664	16.13	10.9724
16.135	8.37234	16.135	9.8014
16.14	9.76058	16.14	9.56721
16.145	9.79209	16.145	10.4023
16.15	8.53273	16.15	8.98186
16.155	8.8527	16.155	9.95487
16.16	9.47506	16.16	10.3033
16.165	7.89003	16.165	9.28658
16.17	8.97305	16.17	9.55505
16.175	9.54442	16.175	9.99828
16.18	8.30807	16.18	8.66577
16.185	8.64524	16.185	9.70469
16.19	9.28048	16.19	10.1025
16.195	9.7574	16.195	10.4012
16.2	9.72864	16.2	11.0127
16.205	8.42402	16.205	9.42454
16.21	9.72241	16.21	9.25924
16.215	10.0734	16.215	9.75898
16.22	8.28478	16.22	8.85576
16.225	8.97653	16.225	9.44779
16.23	9.49579	16.23	9.89222
16.235	8.2203	16.235	8.56056
16.24	8.91501	16.24	9.21311
16.245	10.062	16.245	9.07743
16.25	10.2993	16.25	9.59934
16.255	10.0909	16.255	10.3781
16.26	8.6514	16.26	8.91532
16.265	9.22312	16.265	9.4695
16.27	9.65233	16.27	9.88551
16.275	8.30926	16.275	8.53249
16.28	8.95325	16.28	9.16898
16.285	10.0621	16.285	9.02121
16.29	10.2709	16.29	9.53402
16.295	10.4279	16.295	9.91898
16.3	10.546	16.3	10.2081
16.305	8.96963	16.305	8.75982
16.31	9.43861	16.31	9.32487
16.315	10.1777	16.315	9.36204
16.32	10.3505	16.32	9.77213
16.325	10.4805	16.325	10.08
16.33	10.5783	16.33	10.3113
16.335	8.98673	16.335	8.81967
16.34	9.44427	16.34	9.35216
16.345	10.4133	16.345	9.12637
16.35	10.5171	16.35	9.58061
16.355	10.5954	16.355	9.92161
16.36	10.6544	16.36	10.1777
16.365	10.699	16.365	10.37
16.37	9.06749	16.37	8.84923
16.375	9.49507	16.375	9.35981
16.38	9.81609	16.38	9.74304
16.385	10.0572	16.385	10.0308
16.39	10.6253	16.39	9.8599
16.395	10.2829	16.395	10.5009
16.4	10.7953	16.4	10.2131
16.405	10.7981	16.405	10.3794
16.41	9.76057	16.41	8.21354
16.415	10.0104	16.415	8.8636
16.42	10.1981	16.42	9.35142
16.425	10.3392	16.425	9.71756
16.43	10.4453	16.43	9.99244
16.435	10.5252	16.435	10.1989
16.44	10.5855	16.44	10.354
16.445	10.631	16.445	10.4706
16.45	9.00012	16.45	8.89292
16.455	9.42812	16.455	9.36082
16.46	9.74943	16.46	9.712
16.465	9.99072	16.465	9.97564
16.47	10.172	16.47	10.1736
16.475	10.3083	16.475	10.3224
16.48	11.0362	16.48	9.80872
16.485	9.29386	16.485	8.3816
16.49	9.63826	16.49	8.96239
16.495	9.89684	16.495	9.39822
16.5	10.478	16.5	9.33839
16.505	10.5323	16.505	9.67561
16.51	10.5733	16.51	9.92877
16.515	10.6044	16.515	10.1189
16.52	10.628	16.52	10.2617
16.525	10.259	16.525	10.756
16.53	9.08594	16.53	8.69273
16.535	9.47547	16.535	9.17826
16.54	9.76788	16.54	9.54263
16.545	9.98745	16.545	9.81613
16.55	10.7779	16.55	9.39598
16.555	10.7477	16.555	9.70437
16.56	10.7253	16.56	9.93587
16.565	10.7088	16.565	10.1097
16.57	9.03133	16.57	8.57492
16.575	9.42434	16.575	9.07491
16.58	9.3324	16.58	9.83705
16.585	9.64557	16.585	10.027
16.59	9.88069	16.59	10.1696
16.595	10.0573	16.595	10.2768
16.6	10.19	16.6	10.3574
16.605	10.2897	16.605	10.418
16.61	8.69943	16.61	8.79832
16.615	9.15781	16.615	9.2346
16.62	9.50183	16.62	9.56198
16.625	9.76008	16.625	9.8077
16.63	9.95399	16.63	9.99217
16.635	10.0997	16.635	10.1307
16.64	10.8346	16.64	9.60929
16.645	10.7628	16.645	9.84169
16.65	9.04377	16.65	8.35076
16.655	9.40561	16.655	8.88362
16.66	9.6772	16.66	9.28342
16.665	9.49415	16.665	9.97038
16.67	9.73895	16.67	10.1039
16.675	9.92276	16.675	10.2042
16.68	10.0608	16.68	10.2796
16.685	8.4992	16.685	8.67085
16.69	8.97906	16.69	9.11535
16.695	9.33915	16.695	9.44886
16.7	9.60941	16.7	9.69914
16.705	9.42535	16.705	10.2739
16.71	9.66937	16.71	10.3233
16.715	9.85258	16.715	10.3605
16.72	8.32478	16.72	8.72308
16.725	8.83	16.725	9.14605
16.73	9.20908	16.73	9.4634
16.735	9.49357	16.735	9.70153
16.74	9.70712	16.74	9.88025
16.745	9.86745	16.745	10.0144
16.75	10.6134	16.75	9.48967
16.755	10.5497	16.755	9.71951
16.76	10.5021	16.76	9.892
16.765	10.4666	16.765	10.0215
16.77	10.4401	16.77	10.1187
16.775	8.75508	16.775	8.52637
16.78	8.75538	16.78	9.37005
16.785	9.13763	16.785	9.62104
16.79	9.42448	16.79	9.80938
16.795	9.63977	16.795	9.95074
16.8	9.80139	16.8	10.0569
16.805	9.92276	16.805	10.1365
16.81	10.014	16.81	10.1964
16.815	10.0825	16.815	10.2414
16.82	10.1341	16.82	10.2753
16.825	10.1729	16.825	10.3007
16.83	8.53677	16.83	8.65456
16.835	8.96072	16.835	9.07089
16.84	9.27881	16.84	9.38323
16.845	9.51752	16.845	9.61756
16.85	9.69668	16.85	9.79338
16.855	9.8312	16.855	9.92533
16.86	9.93222	16.86	10.0244
16.865	10.0081	16.865	10.0987
16.87	10.0652	16.87	10.1546
16.875	10.1081	16.875	10.1966
16.88	10.1405	16.88	10.2281
16.885	10.1648	16.885	10.2519
16.89	10.1833	16.89	10.2698
16.895	10.1972	16.895	10.2833
16.9	10.2078	16.9	10.2935
16.905	10.2159	16.905	10.3012
16.91	10.2221	16.91	10.3071
16.915	8.56154	16.915	8.64617
16.92	8.96709	16.92	9.05145
16.925	9.27138	16.925	9.35547
16.93	9.49971	16.93	9.58354
16.935	9.67108	16.935	9.75466
16.94	9.79972	16.94	9.88306
16.945	9.89632	16.945	9.97942
16.95	9.96889	16.95	10.0517
16.955	10.0234	16.955	10.1061
16.96	10.0645	16.96	10.1468
16.965	9.46986	16.965	10.803
16.97	9.64731	16.97	10.6719
16.975	9.78051	16.975	10.5736
16.98	9.88053	16.98	10.5
16.985	9.95566	16.985	10.4448
16.99	10.0121	16.99	10.4035
16.995	10.0546	16.995	10.3726
17	10.4735	17	9.96249
17.005	10.4059	17.005	10.0369
17.01	10.3554	17.01	10.0927
17.015	10.3176	17.015	10.1346
17.02	10.2893	17.02	10.1662
17.025	8.60289	17.025	8.52446
17.03	8.98904	17.03	8.94413
17.035	9.27875	17.035	9.25892
17.04	9.49613	17.04	9.49505
17.045	9.65926	17.045	9.6722
17.05	9.78171	17.05	9.8051
17.055	9.87364	17.055	9.90482
17.06	9.94269	17.06	9.97965
17.065	9.99457	17.065	10.0358
17.07	10.0336	17.07	10.078
17.075	10.0629	17.075	10.1097
17.08	10.472	17.08	9.7465
17.085	10.397	17.085	9.85605
17.09	10.3409	17.09	9.93825
17.095	10.2989	17.095	9.99994
17.1	10.2675	17.1	10.0463
17.105	10.244	17.105	10.081
17.11	10.2265	17.11	10.1072
17.115	10.2135	17.115	10.1268
17.12	9.57837	17.12	10.7671
17.125	9.72538	17.125	10.624
17.13	9.83573	17.13	10.5168
17.135	10.3055	17.135	10.0494
17.14	10.2761	17.14	10.0809
17.145	10.2542	17.145	10.1045
17.15	10.2378	17.15	10.1222
17.155	10.2256	17.155	10.1356
17.16	10.2166	17.16	10.1456
17.165	10.2099	17.165	10.1532
17.17	10.5919	17.17	9.77199
17.175	10.4967	17.175	9.868
17.18	10.4253	17.18	9.94004
17.185	10.3719	17.185	9.99412
17.19	10.332	17.19	10.0347
17.195	10.3021	17.195	10.0652
17.2	10.2798	17.2	10.0881
17.205	10.2631	17.205	10.1054
17.21	10.6377	17.21	9.73138
17.215	10.5369	17.215	9.8328
17.22	10.4613	17.22	9.90891
17.225	8.1139	17.225	8.92613
17.23	8.62757	17.23	9.21668
17.235	9.01289	17.235	9.43462
17.24	9.30197	17.24	9.59811
17.245	9.51885	17.245	9.72074
17.25	9.68158	17.25	9.81275
17.255	9.80371	17.255	9.88177
17.26	9.89539	17.26	9.93357
17.265	10.3512	17.265	9.5855
17.27	10.3112	17.27	9.70633
17.275	10.2813	17.275	9.79699
17.28	10.259	17.28	9.865
17.285	10.2423	17.285	9.91604
17.29	10.2299	17.29	9.95434
17.295	10.2206	17.295	9.9831
17.3	10.2138	17.3	10.0047
17.305	10.2087	17.305	10.0209
17.31	10.5919	17.31	9.64615
17.315	10.4975	17.315	9.74697
17.32	9.80136	17.32	10.4481
17.325	9.90257	17.325	10.3507
17.33	9.97856	17.33	10.2777
17.335	10.0356	17.335	10.2229
17.34	10.0785	17.34	10.1819
17.345	10.1107	17.345	10.1511
17.35	10.135	17.35	10.1281
17.355	10.1532	17.355	10.1109
17.36	10.167	17.36	10.098
17.365	10.1774	17.365	10.0883
17.37	10.1853	17.37	10.0811
17.375	10.1913	17.375	10.0757
17.38	10.5828	17.38	9.68474
17.385	10.4946	17.385	9.77342
17.39	10.4286	17.39	9.83995
17.395	10.3791	17.395	9.88987
17.4	9.71664	17.4	10.5528
17.405	9.84311	17.405	10.4268
17.41	9.93804	17.41	10.3323
17.415	10.0093	17.415	10.2615
17.42	10.0628	17.42	10.2083
17.425	10.1031	17.425	10.1685
17.43	10.1333	17.43	10.1387
17.435	10.543	17.435	9.72943
17.44	10.4685	17.44	9.80436
17.445	10.4127	17.445	9.86058
17.45	10.3709	17.45	9.90278
17.455	10.3396	17.455	9.93445
17.46	8.65087	17.46	8.29284
17.465	9.03524	17.465	8.71253
17.47	9.32357	17.47	9.02731
17.475	9.53988	17.475	9.2634
17.48	9.07668	17.48	10.066
17.485	9.35262	17.485	10.0446
17.49	9.55962	17.49	10.0286
17.495	9.71492	17.495	10.0166
17.5	9.83146	17.5	10.0076
17.505	9.91891	17.505	10.0009
17.51	9.98456	17.51	9.99587
17.515	10.0338	17.515	9.9921
17.52	10.0709	17.52	9.98929
17.525	10.0987	17.525	9.98718
17.53	10.1196	17.53	9.98562
17.535	10.1354	17.535	9.98445
17.54	10.1472	17.54	9.98358
17.545	10.1562	17.545	9.98294
17.55	10.1629	17.55	9.98247
17.555	10.1681	17.555	9.98213
17.56	10.172	17.56	9.98188
17.565	9.54947	17.565	10.6072
17.57	9.70592	17.57	10.4529
17.575	9.82332	17.575	10.3372
17.58	9.91141	17.58	10.2504
17.585	9.97754	17.585	10.1854
17.59	10.0272	17.59	10.1366
17.595	10.0645	17.595	10.1
17.6	10.4794	17.6	9.68563
17.605	10.4089	17.605	9.75672
17.61	10.356	17.61	9.81006
17.615	10.3164	17.615	9.85007
17.62	10.2867	17.62	9.88008
17.625	10.2645	17.625	9.90261
17.63	10.2479	17.63	9.91951
17.635	9.61007	17.635	10.5577
17.64	9.755	17.64	10.413
17.645	9.86374	17.645	10.3046
17.65	9.94535	17.65	10.2232
17.655	10.0066	17.655	10.1622
17.66	10.0526	17.66	10.1165
17.665	10.0872	17.665	10.0822
17.67	10.1131	17.67	10.0565
17.675	10.1327	17.675	10.0373
17.68	10.1474	17.68	10.0228
17.685	10.1584	17.685	10.012
17.69	10.1668	17.69	10.0039
17.695	10.1731	17.695	9.99783
17.7	9.93938	17.7	10.2318
17.705	10.0055	17.705	10.1659
17.71	10.0552	17.71	10.1165
17.715	10.0925	17.715	10.0795
17.72	10.1205	17.72	10.0517
17.725	10.1416	17.725	10.0309
17.73	10.1575	17.73	10.0153
17.735	10.1694	17.735	10.0036
17.74	10.1784	17.74	9.99484
17.745	10.1852	17.745	9.98829
17.75	10.1904	17.75	9.98338
17.755	10.1943	17.755	9.97972
17.76	10.1973	17.76	9.97698
17.765	10.1996	17.765	9.97494
17.77	10.2014	17.77	9.97343
17.775	10.2027	17.775	9.9723
17.78	10.2038	17.78	9.97147
17.785	9.96617	17.785	10.2094
17.79	10.0294	17.79	10.1464
17.795	10.0768	17.795	10.0992
17.8	10.1125	17.8	10.0638
17.805	10.1393	17.805	10.0373
17.81	10.1594	17.81	10.0174
17.815	10.1745	17.815	10.0025
17.82	10.186	17.82	9.99138
17.825	10.1946	17.825	9.98302
17.83	10.2011	17.83	9.97677
17.835	10.206	17.835	9.97209
17.84	10.2098	17.84	9.96859
17.845	10.2126	17.845	9.96598
17.85	10.6018	17.85	9.57709
17.855	10.5118	17.855	9.66731
17.86	10.4444	17.86	9.73498
17.865	10.3939	17.865	9.78574
17.87	9.73059	17.87	10.4493
17.875	9.85642	17.875	10.3237
17.88	9.95085	17.88	10.2296
17.885	10.0217	17.885	10.1589
17.89	10.0749	17.89	10.106
17.895	10.1149	17.895	10.0663
17.9	10.1449	17.9	10.0365
17.905	10.1675	17.905	10.0142
17.91	10.5714	17.91	9.61058
17.915	10.1055	17.915	10.0767
17.92	10.525	17.92	9.65742
17.925	10.4578	17.925	9.72487
17.93	10.4075	17.93	9.77548
17.935	10.3698	17.935	9.81344
17.94	10.3415	17.94	9.84193
17.945	10.3204	17.945	9.86331
17.95	10.3046	17.95	9.87936
17.955	9.66735	17.955	10.5169
17.96	9.81272	17.96	10.3718
17.965	9.92179	17.965	10.263
17.97	10.0036	17.97	10.1814
17.975	10.0651	17.975	10.1202
17.98	10.1112	17.98	10.0743
17.985	10.1459	17.985	10.0399
17.99	10.1719	17.99	10.0142
17.995	10.1915	17.995	9.99484
18	10.5931	18	9.59342
18.005	10.5126	18.005	9.67423
18.01	10.4522	18.01	9.73486
18.015	10.407	18.015	9.78035
18.02	10.3731	18.02	9.81447
18.025	10.3477	18.025	9.84009
18.03	10.3288	18.03	9.85931
18.035	10.3146	18.035	9.87374
18.04	10.304	18.04	9.88458
18.045	10.2961	18.045	9.89273
18.05	10.2903	18.05	9.89885
18.055	10.2859	18.055	9.90346
18.06	10.2827	18.06	9.90693
18.065	10.2803	18.065	9.90955
18.07	9.65312	18.07	10.537
18.075	9.80603	18.075	10.3843
18.08	9.92077	18.08	10.2699
18.085	10.0069	18.085	10.184
18.09	10.0715	18.09	10.1197
18.095	10.12	18.095	10.0714
18.1	10.1564	18.1	10.0352
18.105	10.1838	18.105	10.0081
18.11	10.2044	18.11	9.98778
18.115	10.2199	18.115	9.97255
18.12	10.2315	18.12	9.96115
18.125	10.2403	18.125	9.95262
18.13	10.247	18.13	9.94623
18.135	10.252	18.135	9.94146
18.14	10.2558	18.14	9.93789
18.145	10.2587	18.145	9.93523
18.15	10.261	18.15	9.93326
18.155	10.2627	18.155	9.93179
18.16	10.264	18.16	9.93071
18.165	10.2651	18.165	9.92991
18.17	10.2659	18.17	9.92933
18.175	10.2666	18.175	9.92891
18.18	9.64166	18.18	10.5541
18.185	9.79629	18.185	10.3997
18.19	9.9123	18.19	10.284
18.195	9.99936	18.195	10.1972
18.2	10.0647	18.2	10.1321
18.205	10.1138	18.205	10.0833
18.21	10.1506	18.21	10.0467
18.215	10.1783	18.215	10.0193
18.22	10.1991	18.22	9.99873
18.225	10.2147	18.225	9.98334
18.23	10.2265	18.23	9.97181
18.235	10.2354	18.235	9.96318
18.24	10.2421	18.24	9.95673
18.245	10.2472	18.245	9.9519
18.25	10.251	18.25	9.9483
18.255	9.86702	18.255	10.3326
18.26	9.96093	18.26	10.2389
18.265	10.0314	18.265	10.1687
18.27	10.0843	18.27	10.116
18.275	10.124	18.275	10.0766
18.28	10.1539	18.28	10.047
18.285	10.1763	18.285	10.0248
18.29	10.1932	18.29	10.0082
18.295	10.2059	18.295	9.99577
18.3	10.2154	18.3	9.98645
18.305	10.2227	18.305	9.97948
18.31	10.2281	18.31	9.97427
18.315	10.2323	18.315	9.97038
18.32	10.2354	18.32	9.96748
18.325	10.2378	18.325	9.96532
18.33	10.2397	18.33	9.96372
18.335	10.2411	18.335	9.96254
18.34	10.2423	18.34	9.96167
18.345	10.2432	18.345	9.96103
18.35	10.2439	18.35	9.96057
18.355	10.2445	18.355	9.96024
18.36	9.858	18.36	10.347
18.365	9.32458	18.365	10.8806
18.37	9.54784	18.37	10.6576
18.375	8.04993	18.375	8.825
18.38	8.57742	18.38	9.10142
18.385	8.97306	18.385	9.30873
18.39	9.26982	18.39	9.46421
18.395	9.49242	18.395	9.58083
18.4	9.65939	18.4	9.66828
18.405	9.78465	18.405	9.73388
18.41	9.87862	18.41	9.78307
18.415	9.94912	18.415	9.81996
18.42	10.002	18.42	9.84763
18.425	10.0417	18.425	9.86838
18.43	10.0715	18.43	9.88394
18.435	10.0939	18.435	9.89561
18.44	10.1107	18.44	9.90436
18.445	10.1234	18.445	9.91093
18.45	10.1329	18.45	9.91585
18.455	10.14	18.455	9.91954
18.46	10.1454	18.46	9.9223
18.465	10.1495	18.465	9.92438
18.47	10.1526	18.47	9.92593
18.475	10.1549	18.475	9.92709
18.48	10.1567	18.48	9.92797
18.485	10.158	18.485	9.92862
18.49	10.1591	18.49	9.92911
18.495	10.1599	18.495	9.92947
18.5	10.1605	18.5	9.92974
18.505	10.161	18.505	9.92995
18.51	10.1615	18.51	9.9301
18.515	9.77484	18.515	10.3172
18.52	10.2537	18.52	9.83864
18.525	10.231	18.525	9.86161
18.53	9.8271	18.53	10.2658
18.535	9.90604	18.535	10.1871
18.54	9.96528	18.54	10.128
18.545	10.0097	18.545	10.0837
18.55	10.0431	18.55	10.0505
18.555	10.0682	18.555	10.0256
18.56	10.087	18.56	10.0069
18.565	10.1011	18.565	9.99288
18.57	10.1117	18.57	9.98236
18.575	10.1197	18.575	9.97448
18.58	10.1258	18.58	9.96856
18.585	10.1303	18.585	9.96412
18.59	10.1337	18.59	9.96079
18.595	10.1363	18.595	9.95829
18.6	9.75138	18.6	10.3434
18.605	9.84455	18.605	10.2503
18.61	9.91445	18.61	10.1805
18.615	9.9669	18.615	10.1282
18.62	10.0063	18.62	10.0889
18.625	10.0358	18.625	10.0594
18.63	10.058	18.63	10.0374
18.635	10.0747	18.635	10.0208
18.64	10.0872	18.64	10.0084
18.645	10.0966	18.645	9.99904
18.65	10.1037	18.65	9.99205
18.655	10.1091	18.655	9.9868
18.66	10.1131	18.66	9.98287
18.665	10.1162	18.665	9.97992
18.67	10.1185	18.67	9.9777
18.675	10.1203	18.675	9.97604
18.68	9.73465	18.68	10.3617
18.685	9.82735	18.685	10.2691
18.69	9.8969	18.69	10.1997
18.695	9.94909	18.695	10.1476
18.7	9.98825	18.7	10.1085
18.705	10.0177	18.705	10.0792
18.71	10.0397	18.71	10.0573
18.715	10.0563	18.715	10.0408
18.72	10.0688	18.72	10.0284
18.725	9.69121	18.725	10.4061
18.73	9.78993	18.73	10.3075
18.735	9.86399	18.735	10.2335
18.74	9.91957	18.74	10.1781
18.745	9.96127	18.745	10.1364
18.75	9.99258	18.75	10.1052
18.755	10.0161	18.755	10.0818
18.76	10.0337	18.76	10.0643
18.765	10.047	18.765	10.0511
18.77	10.057	18.77	10.0412
18.775	10.0645	18.775	10.0338
18.78	10.0702	18.78	10.0283
18.785	10.0744	18.785	10.0241
18.79	10.0777	18.79	10.021
18.795	10.0801	18.795	10.0186
18.8	10.082	18.8	10.0169
18.805	10.0834	18.805	10.0155
18.81	10.0845	18.81	10.0146
18.815	10.0853	18.815	10.0138
18.82	10.086	18.82	10.0132
18.825	10.0865	18.825	10.0128
18.83	10.087	18.83	10.0125
18.835	10.0873	18.835	10.0123
18.84	10.0876	18.84	10.0121
18.845	10.0878	18.845	10.012
18.85	9.70107	18.85	10.3988
18.855	9.79291	18.855	10.3071
18.86	9.86182	18.86	10.2383
18.865	9.91352	18.865	10.1867
18.87	9.95233	18.87	10.148
18.875	9.98146	18.875	10.1189
18.88	10.0033	18.88	10.0972
18.885	10.0198	18.885	10.0808
18.89	10.0321	18.89	10.0686
18.895	10.0414	18.895	10.0594
18.9	10.0484	18.9	10.0525
18.905	10.0537	18.905	10.0473
18.91	10.4446	18.91	9.65649
18.915	9.96901	18.915	10.1322
18.92	9.99421	18.92	10.1071
18.925	10.0131	18.925	10.0883
18.93	10.0274	18.93	10.0741
18.935	10.0381	18.935	10.0636
18.94	10.433	18.94	9.66866
18.945	9.96051	18.945	10.1413
18.95	10.3749	18.95	9.72697
18.955	10.3039	18.955	9.79809
18.96	9.86375	18.96	10.2384
18.965	10.3024	18.965	9.79977
18.97	9.86269	18.97	10.2396
18.975	9.91477	18.975	10.1877
18.98	10.3408	18.98	9.76173
18.985	9.89153	18.985	10.2111
18.99	9.93648	18.99	10.1663
18.995	10.3572	18.995	9.74568
19	9.90388	19	10.1991
19.005	10.3328	19.005	9.77027
19.01	10.2726	19.01	9.83055
19.015	9.84054	19.015	10.2627
19.02	10.2853	19.02	9.81801
19.025	9.85015	19.025	10.2533
19.03	9.90566	19.03	10.1979
19.035	9.94731	19.035	10.1563
19.04	11.644	19.04	11.7906
19.045	11.2656	19.045	11.3654
19.05	10.9819	19.05	11.0465
19.055	11.1561	19.055	10.4204
19.06	10.518	19.06	10.7197
19.065	10.8083	19.065	10.1753
19.07	10.2572	19.07	10.5359
19.075	10.2258	19.075	10.4245
19.08	10.2023	19.08	10.3409
19.085	10.1848	19.085	10.2783
19.09	10.1716	19.09	10.2313
19.095	10.1618	19.095	10.1961
19.1	10.1545	19.1	10.1697
19.105	10.1491	19.105	10.1499
19.11	10.1451	19.11	10.1351
19.115	10.1421	19.115	10.124
19.12	10.1399	19.12	10.1157
19.125	10.1383	19.125	10.1095
19.13	10.1371	19.13	10.1049
19.135	10.1363	19.135	10.1014
19.14	10.1358	19.14	10.0989
19.145	10.1354	19.145	10.097
19.15	10.1351	19.15	10.0955
19.155	10.135	19.155	10.0945
19.16	10.135	19.16	10.0937
19.165	10.135	19.165	10.0932
19.17	10.135	19.17	10.0928
19.175	10.1351	19.175	10.0925
19.18	10.1352	19.18	10.0923
19.185	8.46994	19.185	8.42677
19.19	8.87191	19.19	8.82852
19.195	9.17341	19.195	9.12983
19.2	9.39956	19.2	9.35581
19.205	9.56921	19.205	9.5253
19.21	9.69646	19.21	9.65241
19.215	9.79193	19.215	9.74774
19.22	9.86356	19.22	9.81924
19.225	9.91731	19.225	9.87286
19.23	9.95765	19.23	9.91308
19.235	9.98793	19.235	9.94324
19.24	10.0107	19.24	9.96586
19.245	10.0277	19.245	9.98282
19.25	10.0406	19.25	9.99555
19.255	10.0502	19.255	10.0051
19.26	10.0575	19.26	10.0122
19.265	10.063	19.265	10.0176
19.27	10.0671	19.27	10.0216
19.275	10.0702	19.275	10.0246
19.28	10.0726	19.28	10.0269
19.285	10.0744	19.285	10.0286
19.29	10.0758	19.29	10.0299
19.295	10.0769	19.295	10.0308
19.3	10.0777	19.3	10.0315
19.305	10.0783	19.305	10.0321
19.31	10.0788	19.31	10.0325
19.315	10.0793	19.315	10.0328
19.32	10.0796	19.32	10.033
19.325	10.0799	19.325	10.0331
19.33	10.0801	19.33	10.0333
19.335	10.0803	19.335	10.0334
19.34	10.0805	19.34	10.0334
19.345	10.0806	19.345	10.0335
19.35	10.0808	19.35	10.0335
19.355	10.0809	19.355	10.0335
19.36	10.0811	19.36	10.0336
19.365	10.0812	19.365	10.0336
19.37	10.0813	19.37	10.0336
19.375	10.0814	19.375	10.0336
19.38	10.0815	19.38	10.0336
19.385	10.0816	19.385	10.0336
19.39	10.0818	19.39	10.0336
19.395	10.0819	19.395	10.0336
19.4	10.082	19.4	10.0336
19.405	10.0821	19.405	10.0336
19.41	10.0822	19.41	10.0336
19.415	10.0823	19.415	10.0336
19.42	10.0824	19.42	10.0336
19.425	10.0825	19.425	10.0336
19.43	10.0826	19.43	10.0336
19.435	10.0827	19.435	10.0336
19.44	10.0828	19.44	10.0335
19.445	10.0829	19.445	10.0335
19.45	10.0831	19.45	10.0335
19.455	10.0832	19.455	10.0335
19.46	10.0833	19.46	10.0335
19.465	10.0834	19.465	10.0335
19.47	10.0835	19.47	10.0335
19.475	10.0836	19.475	10.0335
19.48	10.0837	19.48	10.0335
19.485	10.0838	19.485	10.0335
19.49	10.0839	19.49	10.0335
19.495	10.084	19.495	10.0335
19.5	10.0841	19.5	10.0335
19.505	10.0842	19.505	10.0335
19.51	10.0843	19.51	10.0335
19.515	10.0844	19.515	10.0335
19.52	10.0845	19.52	10.0335
19.525	9.69771	19.525	10.4204
19.53	9.78947	19.53	10.3288
19.535	9.85832	19.535	10.26
19.54	9.90998	19.54	10.2084
19.545	8.28336	19.545	8.50438
19.55	8.71429	19.55	8.8772
19.555	9.0375	19.555	9.15679
19.56	9.27991	19.56	9.36647
19.565	9.46173	19.565	9.52371
19.57	9.5981	19.57	9.64162
19.575	9.70039	19.575	9.73003
19.58	9.77711	19.58	9.79631
19.585	9.83466	19.585	9.84601
19.59	9.87783	19.59	9.88326
19.595	9.91021	19.595	9.91118
19.6	9.93451	19.6	9.93209
19.605	9.95274	19.605	9.94776
19.61	9.96642	19.61	9.95949
19.615	9.97669	19.615	9.96827
19.62	9.98439	19.62	9.97483
19.625	9.99018	19.625	9.97974
19.63	9.99453	19.63	9.98339
19.635	9.9978	19.635	9.98611
19.64	10.0003	19.64	9.98813
19.645	10.0021	19.645	9.98963
19.65	10.0035	19.65	9.99073
19.655	10.0046	19.655	9.99154
19.66	10.0054	19.66	9.99212
19.665	10.006	19.665	9.99254
19.67	11.6718	19.67	11.6582
19.675	11.2704	19.675	11.2566
19.68	10.9693	19.68	10.9554
19.685	10.7435	19.685	10.7295
19.69	10.5742	19.69	10.56
19.695	10.4472	19.695	10.4329
19.7	10.352	19.7	10.3376
19.705	10.2807	19.705	10.2661
19.71	10.2272	19.71	10.2125
19.715	10.1871	19.715	10.1723
19.72	10.157	19.72	10.1422
19.725	10.1345	19.725	10.1195
19.73	10.1177	19.73	10.1026
19.735	10.1051	19.735	10.0898
19.74	10.0956	19.74	10.0803
19.745	10.0886	19.745	10.0731
19.75	10.0833	19.75	10.0678
19.755	10.0794	19.755	10.0637
19.76	10.0765	19.76	10.0607
19.765	10.0743	19.765	10.0584
19.77	10.0727	19.77	10.0567
19.775	10.0716	19.775	10.0555
19.78	10.0707	19.78	10.0545
19.785	10.0701	19.785	10.0538
19.79	10.0697	19.79	10.0532
19.795	10.0694	19.795	10.0528
19.8	10.0692	19.8	10.0525
19.805	10.6946	19.805	9.42681
19.81	10.5403	19.81	9.5808
19.815	10.4247	19.815	9.69629
19.82	10.7249	19.82	9.39595
19.825	10.1813	19.825	9.93951
19.83	10.5425	19.83	9.57837
19.835	10.4315	19.835	9.68937
19.84	10.3483	19.84	9.77263
19.845	10.2859	19.845	9.83506
19.85	10.2391	19.85	9.88189
19.855	10.2041	19.855	9.917
19.86	10.1779	19.86	9.94334
19.865	10.1582	19.865	9.96309
19.87	10.1435	19.87	9.9779
19.875	10.1325	19.875	9.98901
19.88	10.1242	19.88	9.99733
19.885	10.1181	19.885	10.0036
19.89	10.1135	19.89	10.0083
19.895	10.1101	19.895	10.0118
19.9	10.1076	19.9	10.0144
19.905	10.1057	19.905	10.0164
19.91	10.1043	19.91	10.0178
19.915	10.1033	19.915	10.0189
19.92	10.1026	19.92	10.0198
19.925	10.1021	19.925	10.0204
19.93	10.1017	19.93	10.0208
19.935	10.1015	19.935	10.0212
19.94	10.1013	19.94	10.0214
19.945	10.1012	19.945	10.0216
19.95	10.1012	19.95	10.0218
19.955	10.1012	19.955	10.0219
19.96	9.71429	19.96	10.4089
19.965	9.80599	19.965	10.3173
19.97	11.5402	19.97	11.914
19.975	11.19	19.975	11.4606
19.98	10.9274	19.98	11.1206
19.985	10.7305	19.985	10.8657
19.99	10.5829	19.99	10.6744
19.995	10.4722	19.995	10.531
20	-6.77434	20	1.28845
20.005	-6.85571	20.005	1.19211
20.01	-6.92149	20.01	1.11595
20.015	-6.97558	20.015	1.05491
20.02	-7.40785	20.02	1.39217
20.025	-7.35493	20.025	1.25935
20.03	-7.32	20.03	1.15581
20.035	-7.29855	20.035	1.07425
20.04	-7.28722	20.04	1.00918
20.045	-7.90896	20.045	1.58194
20.05	-7.75674	20.05	1.38433
20.055	-7.64733	20.055	1.23221
20.06	-7.18308	20.06	0.727266
20.065	-5.55611	20.065	2.39191
20.07	-5.99152	20.07	1.98561
20.075	-6.3228	20.075	1.677
20.08	-7.20149	20.08	2.06713
20.085	-7.24196	20.085	1.73257
20.09	-5.61165	20.09	3.14315
20.095	-6.43148	20.095	2.93327
20.1	-6.6692	20.1	2.39013
20.105	-6.85221	20.105	1.97891
20.11	-4.94183	20.11	2.94507
20.115	-6.17199	20.115	3.02229
20.12	-6.47603	20.12	2.45308
20.125	-5.04337	20.125	3.68773
20.13	-5.62444	20.13	2.95899
20.135	-4.63806	20.135	4.31253
20.14	-5.31242	20.14	3.43158
20.145	-4.15746	20.145	4.43245
20.15	-4.55982	20.15	3.14147
20.155	-3.58271	20.155	4.21671
20.16	-5.13086	20.16	3.99396
20.165	-4.00794	20.165	4.86525
20.17	-2.7689	20.17	5.14252
20.175	-2.83704	20.175	6.36859
20.18	-1.86799	20.18	6.28871
20.185	-3.17852	20.185	4.95608
20.19	-2.11361	20.19	5.23137
20.195	-0.259959	20.195	7.73446
20.2	-0.269193	20.2	7.73035
20.205	1.54772	20.205	9.25513
20.21	1.51607	20.21	8.51227
20.215	0.882028	20.215	8.58647
20.22	0.658007	20.22	8.41168
20.225	0.887063	20.225	7.90462
20.23	0.687135	20.23	7.9172
20.235	2.36116	20.235	9.45464
20.24	2.22248	20.24	8.72141
20.245	2.13377	20.245	8.17748
20.25	4.1349	20.25	9.05401
20.255	0.940531	20.255	7.79547
20.26	1.21614	20.26	7.50337
20.265	5.54291	20.265	9.84729
20.27	4.73791	20.27	9.0733
20.275	3.76267	20.275	8.88591
20.28	8.96012	20.28	12.8305
20.285	7.78571	20.285	10.9779
20.29	6.5386	20.29	9.9766
20.295	11.5374	20.295	13.3058
20.3	9.44522	20.3	11.7606
20.305	7.89179	20.305	10.608
20.31	11.2341	20.31	11.92
20.315	9.30914	20.315	10.7542
20.32	14.4252	20.32	13.3348
20.325	11.798	20.325	11.8516
20.33	10.2304	20.33	10.3588
20.335	11.128	20.335	10.5192
20.34	9.78944	20.34	9.37198
20.345	10.472	20.345	10.1786
20.35	13.2202	20.35	11.9296
20.355	11.4784	20.355	10.4652
20.36	10.1932	20.36	9.36851
20.365	13.3551	20.365	11.1046
20.37	11.6823	20.37	9.87042
20.375	10.4489	20.375	8.94655
20.38	16.7146	20.38	11.0784
20.385	14.7187	20.385	9.49024
20.39	19.4053	20.39	12.1313
20.395	16.4615	20.395	10.6889
20.4	14.6621	20.4	9.22209
20.405	19.883	20.405	11.5673
20.41	16.9583	20.41	10.285
20.415	21.7172	20.415	12.3869
20.42	18.833	20.42	10.5351
20.425	16.3097	20.425	9.53039
20.43	17.8906	20.43	8.65814
20.435	15.6782	20.435	8.1242
20.44	15.706	20.44	9.39142
20.445	19.7503	20.445	9.70238
20.45	17.2123	20.45	8.92738
20.455	16.3432	20.455	7.33611
20.46	18.8127	20.46	9.70711
20.465	16.6213	20.465	8.94978
20.47	15.3866	20.47	7.99732
20.475	21.6571	20.475	10.1033
20.48	18.8968	20.48	9.26536
20.485	22.7396	20.485	9.41006
20.49	21.4749	20.49	10.4175
20.495	18.8976	20.495	9.52482
20.5	19.6647	20.5	9.51103
20.505	17.9931	20.505	8.47075
20.51	16.3798	20.51	8.07518
20.515	24.4139	20.515	11.8827
20.52	21.9511	20.52	10.0447
20.525	19.1162	20.525	9.67941
20.53	25.5762	20.53	10.837
20.535	21.9481	20.535	10.2983
20.54	19.87	20.54	9.27691
20.545	20.7703	20.545	9.40828
20.55	17.7997	20.55	9.87657
20.555	16.8379	20.555	8.98721
20.56	23.3058	20.56	11.1491
20.565	20.6862	20.565	10.3616
20.57	23.2278	20.57	11.9521
20.575	19.423	20.575	8.94763
20.58	18.8931	20.58	11.0292
20.585	20.5477	20.585	10.5934
20.59	18.7657	20.59	10.014
20.595	17.2055	20.595	9.82931
20.6	19.208	20.6	9.87514
20.605	17.202	20.605	10.142
20.61	16.3357	20.61	9.73029
20.615	17.9918	20.615	10.4728
20.62	16.5879	20.62	10.4005
20.625	14.2664	20.625	8.31043
20.63	17.7606	20.63	11.4975
20.635	14.8009	20.635	9.56049
20.64	14.6289	20.64	9.38827
20.645	16.0321	20.645	11.0845
20.65	13.5368	20.65	9.29836
20.655	13.3264	20.655	9.62633
20.66	14.9342	20.66	11.4642
20.665	12.733	20.665	9.64405
20.67	12.7432	20.67	9.94649
20.675	12.8511	20.675	10.0999
20.68	12.8413	20.68	10.3327
20.685	10.7918	20.685	9.24557
20.69	12.6662	20.69	11.6782
20.695	11.047	20.695	9.9223
20.7	12.7138	20.7	12.3837
20.705	10.931	20.705	10.6573
20.71	10.77	20.71	11.5152
20.715	9.55919	20.715	9.94514
20.72	9.96487	20.72	10.7827
20.725	8.60901	20.725	9.76748
20.73	9.04158	20.73	10.8856
20.735	8.1244	20.735	9.66219
20.74	8.55449	20.74	10.9557
20.745	7.11094	20.745	10.3885
20.75	7.02645	20.75	8.96315
20.755	7.6992	20.755	10.4871
20.76	7.06317	20.76	9.4672
20.765	5.7101	20.765	9.57664
20.77	7.00664	20.77	10.6765
20.775	6.25758	20.775	9.91939
20.78	5.68666	20.78	9.35906
20.785	6.85645	20.785	10.67
20.79	6.1133	20.79	9.97027
20.795	6.17232	20.795	8.8275
20.8	5.04885	20.8	9.13655
20.805	4.71947	20.805	8.85351
20.81	5.08882	20.81	8.02324
20.815	6.10203	20.815	9.99352
20.82	5.72142	20.82	9.3084
20.825	5.36573	20.825	8.86323
20.83	4.88799	20.83	8.73874
20.835	6.57296	20.835	9.93133
20.84	6.27196	20.84	9.0872
20.845	5.55434	20.845	8.94442
20.85	5.00709	20.85	8.84485
20.855	5.30321	20.855	8.06209
20.86	4.79204	20.86	8.20675
20.865	4.78657	20.865	7.9358
20.87	4.86863	20.87	7.64489
20.875	4.43833	20.875	7.91703
20.88	5.119	20.88	7.11621
20.885	6.37085	20.885	9.10351
20.89	6.17437	20.89	8.42608
20.895	5.78168	20.895	8.16185
20.9	5.33482	20.9	8.11452
20.905	5.37475	20.905	7.70246
20.91	5.15936	20.91	7.63725
20.915	6.74943	20.915	9.16605
20.92	6.81171	20.92	8.13967
20.925	6.23126	20.925	7.9956
20.93	6.89457	20.93	6.78744
20.935	5.89513	20.935	7.37679
20.94	5.52353	20.94	7.43938
20.945	7.62194	20.945	8.43855
20.95	6.81676	20.95	8.26371
20.955	7.31156	20.955	7.03248
20.96	6.57271	20.96	7.21759
20.965	7.29317	20.965	9.41121
20.97	8.05014	20.97	7.53664
20.975	7.12607	20.975	7.62112
20.98	9.58408	20.98	7.86284
20.985	8.28493	20.985	7.88367
20.99	7.93224	20.99	7.27628
20.995	7.51771	20.995	6.96942
21	9.39801	21	7.87752
21.005	8.14842	21.005	7.91533
21.01	8.93547	21.01	6.21814
21.015	7.79262	21.015	6.67709
21.02	8.5971	21.02	8.68918
21.025	9.03531	21.025	7.06035
21.03	8.2592	21.03	6.94224
21.035	10.4464	21.035	7.41391
21.04	8.94421	21.04	7.60722
21.045	7.81384	21.045	7.75472
21.05	8.45183	21.05	6.37835
21.055	9.10404	21.055	8.50193
21.06	7.93861	21.06	8.44624
21.065	8.55032	21.065	6.9175
21.07	7.9044	21.07	6.87446
21.075	8.93832	21.075	8.65343
21.08	8.83022	21.08	7.56827
21.085	7.74032	21.085	7.76207
21.09	7.54471	21.09	7.28447
21.095	7.39653	21.095	6.92659
21.1	8.94933	21.1	8.32389
21.105	8.22306	21.105	7.95984
21.11	10.0608	21.11	8.63406
21.115	9.30396	21.115	7.97199
21.12	8.97346	21.12	7.23726
21.125	10.1482	21.125	8.59335
21.13	8.75141	21.13	8.58537
21.135	8.56427	21.135	7.71794
21.14	8.56806	21.14	6.92219
21.145	7.56218	21.145	7.33307
21.15	9.09505	21.15	8.68372
21.155	7.96696	21.155	8.67166
21.16	7.7428	21.16	8.03971
21.165	7.81186	21.165	7.32759
21.17	9.28628	21.17	8.70066
21.175	8.11439	21.175	8.70544
21.18	7.47045	21.18	8.47308
21.185	7.1295	21.185	8.15586
21.19	6.48838	21.19	8.3024
21.195	8.77194	21.195	8.97774
21.2	8.11106	21.2	8.55509
21.205	10.6234	21.205	8.55994
21.21	9.12399	21.21	8.64466
21.215	7.99591	21.215	8.71081
21.22	8.63585	21.22	7.27354
21.225	7.62436	21.225	7.68615
21.23	9.39167	21.23	8.7996
21.235	8.19812	21.235	8.8511
21.24	7.92497	21.24	8.26687
21.245	7.57044	21.245	7.97752
21.25	6.81828	21.25	8.24594
21.255	8.30304	21.255	9.72833
21.26	8.8699	21.26	8.08423
21.265	7.80367	21.265	8.34174
21.27	7.00056	21.27	8.53751
21.275	9.16274	21.275	9.24981
21.28	8.02399	21.28	9.24188
21.285	7.792	21.285	8.61309
21.29	7.61681	21.29	8.14194
21.295	6.85874	21.295	8.41449
21.3	7.95218	21.3	10.2869
21.305	7.59506	21.305	9.56597
21.31	7.22796	21.31	9.12377
21.315	7.66995	21.315	8.07409
21.32	7.27892	21.32	8.00862
21.325	7.22589	21.325	7.71855
21.33	8.85035	21.33	9.16684
21.335	7.79118	21.335	9.2281
21.34	6.99345	21.34	9.27671
21.345	7.25582	21.345	8.45181
21.35	6.97152	21.35	8.31354
21.355	6.37308	21.355	8.59435
21.36	6.78492	21.36	7.94361
21.365	7.89118	21.365	9.98828
21.37	7.4536	21.37	9.48662
21.375	7.36572	21.375	8.86944
21.38	6.67321	21.38	9.03249
21.385	6.53746	21.385	8.7705
21.39	6.67595	21.39	8.33307
21.395	6.15322	21.395	8.63093
21.4	6.14481	21.4	8.47004
21.405	8.28274	21.405	9.53529
21.41	7.75427	21.41	9.16375
21.415	7.59824	21.415	8.64416
21.42	6.61612	21.42	9.11895
21.425	6.74314	21.425	8.61084
21.43	6.83732	21.43	8.23022
21.435	6.66834	21.435	8.18376
21.44	9.07282	21.44	8.94788
21.445	8.36243	21.445	8.73238
21.45	7.83146	21.45	8.56835
21.455	8.29906	21.455	7.57893
21.46	7.16143	21.46	8.32462
21.465	6.93331	21.465	8.25822
21.47	7.38952	21.47	7.58055
21.475	7.11024	21.475	7.69317
21.48	6.51565	21.48	8.16217
21.485	7.70438	21.485	6.8787
21.49	9.0166	21.49	8.82564
21.495	7.3393	21.495	9.64499
21.5	8.96476	21.5	7.37554
21.505	8.31589	21.505	7.54088
21.51	8.45658	21.51	7.03701
21.515	7.94068	21.515	7.27999
21.52	7.55562	21.52	7.45983
21.525	7.26869	21.525	7.59232
21.53	7.05535	21.53	7.68929
21.535	6.89721	21.535	7.75962
21.54	8.83281	21.54	9.08842
21.545	8.25364	21.545	8.81362
21.55	7.82114	21.55	8.60514
21.555	7.11171	21.555	8.83334
21.56	6.96339	21.56	8.62024
21.565	7.24099	21.565	8.07109
21.57	7.06921	21.57	8.03871
21.575	6.94226	21.575	8.01204
21.58	6.84895	21.58	7.98965
21.585	6.78085	21.585	7.97048
21.59	6.10619	21.59	8.57919
21.595	8.51624	21.595	9.44997
21.6	8.43847	21.6	8.68613
21.605	7.37472	21.605	9.11822
21.61	8.45305	21.61	7.56568
21.615	7.77864	21.615	7.88398
21.62	7.51615	21.62	7.87893
21.625	7.32121	21.625	7.87276
21.63	7.17692	21.63	7.86576
21.635	7.07062	21.635	7.85813
21.64	7.37977	21.64	7.46309
21.645	8.51014	21.645	9.59864
21.65	8.47778	21.65	8.77823
21.655	8.07359	21.655	8.54243
21.66	7.53385	21.66	8.60175
21.665	7.99789	21.665	7.77699
21.67	7.72458	21.67	7.77933
21.675	7.28302	21.675	8.01725
21.68	7.82069	21.68	7.32644
21.685	7.36408	21.685	7.66777
21.69	7.26498	21.69	7.67999
21.695	7.1926	21.695	7.68679
21.7	6.90174	21.7	7.92806
21.705	6.92695	21.705	7.86523
21.71	9.62564	21.71	8.46871
21.715	8.9956	21.715	8.27321
21.72	9.92441	21.72	6.72485
21.725	9.236	21.725	6.94824
21.73	8.48313	21.73	7.35195
21.735	9.17429	21.735	6.39855
21.74	9.07645	21.74	6.29932
21.745	8.62319	21.745	6.60441
21.75	9.29765	21.75	5.81844
21.755	8.17486	21.755	6.85722
21.76	8.34497	21.76	6.62372
21.765	10.3835	21.765	7.86802
21.77	9.40178	21.77	8.00981
21.775	8.90888	21.775	7.87239
21.78	8.92815	21.78	7.38004
21.785	8.56274	21.785	7.39029
21.79	8.67765	21.79	7.00869
21.795	8.38397	21.795	7.102
21.8	7.92718	21.8	7.40816
21.805	7.82801	21.805	7.39403
21.81	7.75565	21.81	7.38107
21.815	7.46485	21.815	7.60754
21.82	9.78105	21.82	8.57355
21.825	8.62059	21.825	8.89358
21.83	8.37554	21.83	8.50799
21.835	7.56832	21.835	8.84194
21.84	7.5882	21.84	8.4668
21.845	7.36662	21.845	8.42164
21.85	8.06935	21.85	7.51854
21.855	7.73663	21.855	7.70069
21.86	7.73054	21.86	7.59355
21.865	7.10252	21.865	8.13633
21.87	6.63134	21.87	8.54329
21.875	6.90327	21.875	8.2229
21.88	7.4962	21.88	7.59331
21.885	7.56107	21.885	7.50065
21.89	6.98628	21.89	8.05428
21.895	7.56746	21.895	7.45695
21.9	7.62351	21.9	7.38847
21.905	7.04211	21.905	7.96025
21.91	7.23138	21.91	7.76346
21.915	7.37537	21.915	7.61352
21.92	6.85993	21.92	8.12421
21.925	7.09867	21.925	7.8816
21.93	6.65429	21.93	8.32277
21.935	6.94632	21.935	8.02803
21.94	6.54191	21.94	8.43011
21.945	6.62539	21.945	8.34458
21.95	6.93145	21.95	8.03668
21.955	7.54999	21.955	7.41645
21.96	9.29948	21.96	8.9962
21.965	8.33729	21.965	9.15326
21.97	9.25341	21.97	7.63302
21.975	8.31196	21.975	8.12113
21.98	9.24364	21.98	6.84917
21.985	8.93933	21.985	6.89801
21.99	8.0877	21.99	7.55778
21.995	8.07431	21.995	7.42699
22	7.82782	22	7.5651
22.005	7.88643	22.005	7.42494
22.01	7.30698	22.01	7.94296
22.015	7.88469	22.015	7.31891
22.02	7.3127	22.02	7.85588
22.025	7.50906	22.025	7.633
22.03	7.03293	22.03	8.08897
22.035	7.68812	22.035	7.41839
22.04	7.17425	22.04	7.92046
22.045	7.17566	22.045	7.90993
22.05	7.42021	22.05	7.65829
22.055	6.98022	22.055	8.09269
22.06	7.27557	22.06	7.79287
22.065	7.49917	22.065	7.56567
22.07	7.43042	22.07	7.63145
22.075	7.62234	22.075	7.43704
22.08	7.14289	22.08	7.91436
22.085	7.17011	22.085	7.88527
22.09	7.43402	22.09	7.6197
22.095	7.00856	22.095	8.04365
22.1	7.70176	22.1	7.34905
22.105	7.84189	22.105	7.20762
22.11	7.71053	22.11	7.33773
22.115	7.23002	22.115	7.81704
22.12	7.495	22.12	7.55089
22.125	7.07034	22.125	7.97442
22.13	7.13866	22.13	7.90497
22.135	9.0988	22.135	9.27453
22.14	8.29464	22.14	9.27395
22.145	7.69141	22.145	9.27339
22.15	8.25132	22.15	8.26042
22.155	7.66601	22.155	8.50571
22.16	8.23935	22.16	7.67712
22.165	7.66412	22.165	8.06069
22.17	8.24502	22.17	7.33582
22.175	7.67547	22.175	7.79717
22.18	7.2482	22.18	8.14306
22.185	7.94008	22.185	7.38993
22.19	7.45375	22.19	7.83009
22.195	7.47585	22.195	7.77313
22.2	8.74837	22.2	6.47424
22.205	8.07426	22.205	7.12836
22.21	7.56857	22.21	7.61881
22.215	8.20164	22.215	6.9741
22.22	7.67121	22.22	7.49557
22.225	7.66024	22.225	7.4996
22.23	7.89553	22.23	7.25887
22.235	7.83558	22.235	7.31452
22.24	7.40865	22.24	7.73799
22.245	8.10079	22.245	7.04304
22.25	8.00161	22.25	7.13988
22.255	8.17075	22.255	6.96876
22.26	8.06118	22.26	7.07662
22.265	7.59705	22.265	7.53924
22.27	7.87434	22.27	7.2606
22.275	7.84589	22.275	7.2878
22.28	8.06808	22.28	7.06446
22.285	7.9983	22.285	7.13314
22.29	7.95096	22.29	7.17944
22.295	8.15898	22.295	6.97041
22.3	7.69163	22.3	7.43677
22.305	7.72798	22.305	7.39946
22.31	7.37328	22.31	7.75321
22.315	8.1196	22.315	7.00595
22.32	7.67411	22.32	7.45051
22.325	7.3399	22.325	7.7838
22.33	7.47611	22.33	7.64667
22.335	9.48718	22.335	8.96548
22.34	8.72126	22.34	8.92684
22.345	8.53369	22.345	8.5108
22.35	8.63656	22.35	7.95503
22.355	8.47732	22.355	7.77441
22.36	8.36291	22.36	7.63374
22.365	8.52064	22.365	7.28451
22.37	8.0156	22.37	7.64574
22.375	8.02371	22.375	7.52959
22.38	7.64785	22.38	7.82422
22.385	7.36589	22.385	8.04507
22.39	8.16679	22.39	7.19817
22.395	7.76225	22.395	7.568
22.4	7.45879	22.4	7.84525
22.405	8.24355	22.405	7.04065
22.41	7.82692	22.41	7.4422
22.415	7.51438	22.415	7.74325
22.42	7.66686	22.42	7.58197
22.425	8.02477	22.425	7.21726
22.43	8.05681	22.43	7.17994
22.435	8.08586	22.435	7.14674
22.44	7.72572	22.44	7.50358
22.445	8.46798	22.445	6.75866
22.45	8.01947	22.45	7.20499
22.455	7.68303	22.455	7.53961
22.46	8.44306	22.46	6.77802
22.465	8.00788	22.465	7.21184
22.47	7.68144	22.47	7.53708
22.475	7.82349	22.475	7.39393
22.48	7.5481	22.48	7.66832
22.485	7.96698	22.485	7.2485
22.49	8.04475	22.49	7.16983
22.495	7.72116	22.495	7.49257
22.5	7.4784	22.5	7.7345
22.505	8.3087	22.505	6.90339
22.51	7.92622	22.51	7.28507
22.515	8.02625	22.515	7.18426
22.52	7.71935	22.52	7.49038
22.525	7.48911	22.525	7.71985
22.53	7.31638	22.53	7.89182
22.535	8.19919	22.535	7.00825
22.54	7.85611	22.54	7.35057
22.545	7.59873	22.545	7.60719
22.55	7.79259	22.55	7.41258
22.555	7.55606	22.555	7.64836
22.56	7.3786	22.56	7.82506
22.565	7.87093	22.565	7.33198
22.57	7.61685	22.57	7.58531
22.575	7.81318	22.575	7.38823
22.58	7.5785	22.58	7.62216
22.585	7.40243	22.585	7.79748
22.59	7.65727	22.59	7.54189
22.595	8.09196	22.595	7.10645
22.6	9.46004	22.6	9.06841
22.605	8.83517	22.605	8.88888
22.61	8.75343	22.61	8.36717
22.615	8.31022	22.615	8.35764
22.62	8.9902	22.62	7.33796
22.625	8.49501	22.625	7.57822
22.63	8.51053	22.63	7.37136
22.635	8.14027	22.635	7.59797
22.64	7.86253	22.64	7.76781
22.645	7.65419	22.645	7.89508
22.65	8.12339	22.65	7.36494
22.655	7.85197	22.655	7.59049
22.66	8.03532	22.66	7.3726
22.665	7.79093	22.665	7.59093
22.67	7.6076	22.67	7.75456
22.675	7.47007	22.675	7.87717
22.68	7.75383	22.68	7.58207
22.685	8.59718	22.685	6.73007
22.69	8.22452	22.69	7.0961
22.695	7.94499	22.695	7.3705
22.7	7.7353	22.7	7.57619
22.705	7.57801	22.705	7.73034
22.71	8.47243	22.71	6.83341
22.715	8.13807	22.715	7.16574
22.72	7.88727	22.72	7.41487
22.725	7.69913	22.725	7.6016
22.73	7.558	22.73	7.74153
22.735	7.45211	22.735	7.84637
22.74	7.37266	22.74	7.92488
22.745	7.69999	22.745	7.5967
22.75	7.17664	22.75	8.11927
22.755	7.55291	22.755	7.74226
22.76	7.4532	22.76	7.84126
22.765	8.00388	22.765	7.28991
22.77	7.79357	22.77	7.49955
22.775	8.02276	22.775	7.26972
22.78	7.81275	22.78	7.4791
22.785	7.65521	22.785	7.63602
22.79	7.53703	22.79	7.75359
22.795	7.44835	22.795	7.84165
22.8	7.38182	22.8	7.90758
22.805	7.71883	22.805	7.56997
22.81	7.82822	22.81	7.45997
22.815	7.66883	22.815	7.61876
22.82	7.31071	22.82	7.97627
22.825	7.52204	22.825	7.76435
22.83	7.82604	22.83	7.45975
22.835	7.67214	22.835	7.61305
22.84	7.55669	22.84	7.72791
22.845	7.47007	22.845	7.81393
22.85	7.40507	22.85	7.87833
22.855	7.35629	22.855	7.92652
22.86	7.31967	22.86	7.96254
22.865	7.67912	22.865	7.60249
22.87	7.56681	22.87	7.7142
22.875	7.48255	22.875	7.79787
22.88	7.41932	22.88	7.8605
22.885	8.38429	22.885	6.89493
22.89	8.10285	22.89	7.17578
22.895	7.26626	22.895	8.01177
22.9	7.88754	22.9	7.3899
22.905	7.73019	22.905	7.54664
22.91	7.61215	22.91	7.66409
22.915	7.52359	22.915	7.75205
22.92	7.45714	22.92	7.81791
22.925	7.79422	22.925	7.48023
22.93	7.66513	22.93	7.60873
22.935	7.56828	22.935	7.70498
22.94	7.88256	22.94	7.3901
22.945	7.73638	22.945	7.53569
22.95	7.62671	22.95	7.64476
22.955	7.54442	22.955	7.72645
22.96	7.48268	22.96	7.7876
22.965	7.82328	22.965	7.44639
22.97	8.32232	22.97	6.94676
22.975	8.0733	22.975	7.19518
22.98	7.8865	22.98	7.38138
22.985	7.74638	22.985	7.52092
22.99	7.64125	22.99	7.62545
22.995	7.56238	22.995	7.70372
23	7.50319	23	7.76231
23.005	7.84572	23.005	7.41919
23.01	7.72072	23.01	7.54359
23.015	7.62694	23.015	7.63678
23.02	7.55657	23.02	7.70654
23.025	7.89072	23.025	7.37181
23.03	7.75943	23.03	7.5025
23.035	7.66093	23.035	7.6004
23.04	7.58703	23.04	7.6737
23.045	7.91852	23.045	7.34162
23.05	7.78524	23.05	7.4743
23.055	7.68525	23.055	7.57369
23.06	7.61023	23.06	7.64811
23.065	7.55393	23.065	7.70381
23.07	7.51168	23.07	7.74547
23.075	7.47996	23.075	7.77659
23.08	7.84309	23.08	7.41287
23.085	7.73354	23.085	7.52182
23.09	7.65135	23.09	7.60342
23.095	7.58967	23.095	7.66449
23.1	7.54339	23.1	7.71018
23.105	7.89559	23.105	7.35739
23.11	7.77785	23.11	7.47453
23.115	7.68951	23.115	7.56227
23.12	7.62323	23.12	7.62796
23.125	7.96043	23.125	7.29016
23.13	7.83144	23.13	7.41856
23.135	7.73466	23.135	7.51473
23.14	7.66205	23.14	7.58675
23.145	8.23304	23.145	7.01516
23.15	8.42493	23.15	6.82267
23.155	7.56148	23.155	7.68553
23.16	7.53713	23.16	7.70929
23.165	8.14431	23.165	7.1015
23.17	7.9764	23.17	7.26882
23.175	7.6119	23.175	7.63272
23.18	8.20539	23.18	7.03864
23.185	7.78867	23.185	7.45476
23.19	8.34299	23.19	6.89985
23.195	8.13542	23.195	7.10682
23.2	7.97972	23.2	7.26192
23.205	7.86291	23.205	7.37813
23.21	8.16223	23.21	7.07822
23.215	7.37934	23.215	7.86052
23.22	8.04089	23.22	7.19836
23.225	7.91376	23.225	7.3249
23.23	8.20532	23.23	7.03274
23.235	8.0421	23.235	7.19536
23.24	7.91966	23.24	7.31721
23.245	7.8278	23.245	7.40847
23.25	7.75887	23.25	7.4768
23.255	7.70715	23.255	7.52793
23.26	7.66833	23.26	7.56616
23.265	7.63918	23.265	7.5947
23.27	7.61729	23.27	7.616
23.275	7.9878	23.275	7.2449
23.28	7.88378	23.28	7.34832
23.285	7.80574	23.285	7.42577
23.29	7.74717	23.29	7.48373
23.295	7.70322	23.295	7.52708
23.3	8.05718	23.3	7.17253
23.305	7.94075	23.305	7.28836
23.31	7.8534	23.31	7.37512
23.315	7.78786	23.315	7.44006
23.32	7.73867	23.32	7.48865
23.325	7.70176	23.325	7.52497
23.33	7.67404	23.33	7.55209
23.335	7.02774	23.335	8.19779
23.34	7.79174	23.34	7.4332
23.345	8.12838	23.345	7.09596
23.35	7.37349	23.35	7.85025
23.355	8.05605	23.355	7.1671
23.36	7.31918	23.36	7.90337
23.365	7.38977	23.365	7.83218
23.37	8.06817	23.37	7.15319
23.375	7.32818	23.375	7.89258
23.38	7.78338	23.38	7.43678
23.385	8.36837	23.385	6.8512
23.39	7.55832	23.39	7.66065
23.395	7.57403	23.395	7.64434
23.4	7.58579	23.4	7.63199
23.405	7.59457	23.405	7.62261
23.41	7.60113	23.41	7.61546
23.415	7.60602	23.415	7.60997
23.42	7.60965	23.42	7.60574
23.425	7.9993	23.425	7.2155
23.43	7.90964	23.43	7.30456
23.435	7.84236	23.435	7.37124
23.44	7.79187	23.44	7.42114
23.445	7.75398	23.445	7.45844
23.45	7.72552	23.45	7.48629
23.455	7.70415	23.455	7.50706
23.46	7.6881	23.46	7.52252
23.465	7.67603	23.465	7.534
23.47	8.05389	23.47	7.15554
23.475	7.95539	23.475	7.25344
23.48	7.88148	23.48	7.32675
23.485	7.82603	23.485	7.38161
23.49	7.7844	23.49	7.42264
23.495	7.75316	23.495	7.45329
23.5	7.72969	23.5	7.47616
23.505	7.71206	23.505	7.49319
23.51	7.69881	23.51	7.50585
23.515	7.68884	23.515	7.51522
23.52	7.68133	23.52	7.52213
23.525	7.67567	23.525	7.52719
23.53	7.6714	23.53	7.53087
23.535	7.66816	23.535	7.53351
23.54	7.6657	23.54	7.53537
23.545	8.05078	23.545	7.1497
23.55	7.95769	23.55	7.2422
23.555	7.88784	23.555	7.31145
23.56	7.83542	23.56	7.36327
23.565	7.79608	23.565	7.40201
23.57	7.76654	23.57	7.43095
23.575	7.74436	23.575	7.45254
23.58	7.72769	23.58	7.46861
23.585	7.71516	23.585	7.48054
23.59	7.70574	23.59	7.48937
23.595	9.36403	23.595	9.16127
23.6	8.95685	23.6	8.76421
23.605	8.65145	23.605	8.46631
23.61	8.4224	23.61	8.24278
23.615	8.25059	23.615	8.07504
23.62	8.12173	23.62	7.94913
23.625	8.41201	23.625	7.46765
23.63	8.24785	23.63	7.48831
23.635	8.12472	23.635	7.5037
23.64	8.03236	23.64	7.51515
23.645	7.96308	23.645	7.52363
23.65	7.91111	23.65	7.5299
23.655	7.48517	23.655	7.92144
23.66	7.93452	23.66	7.44619
23.665	7.26418	23.665	8.09699
23.67	7.62321	23.67	7.72319
23.675	7.65107	23.675	7.68415
23.68	7.04648	23.68	8.28024
23.685	7.21629	23.685	8.10395
23.69	7.96912	23.69	7.34614
23.695	7.67192	23.695	7.6395
23.7	7.92895	23.7	7.37947
23.705	7.64178	23.705	7.6643
23.71	7.66779	23.71	7.63641
23.715	7.30034	23.715	8.00234
23.72	7.79355	23.72	7.50787
23.725	7.78158	23.725	7.51879
23.73	7.38565	23.73	7.91383
23.735	7.8575	23.735	7.4412
23.74	7.82951	23.74	7.46849
23.745	7.80851	23.745	7.48886
23.75	7.40579	23.75	7.89098
23.755	7.48561	23.755	7.81061
23.76	7.93241	23.76	7.36329
23.765	7.49869	23.765	7.79651
23.77	7.55525	23.77	7.73946
23.775	7.59766	23.775	7.69658
23.78	7.62945	23.78	7.66431
23.785	7.65329	23.785	7.64002
23.79	7.67115	23.79	7.62169
23.795	7.68454	23.795	7.60785
23.8	7.69456	23.8	7.59738
23.805	7.70207	23.805	7.58942
23.81	8.09464	23.81	7.1964
23.815	8.00719	23.815	7.28341
23.82	7.94159	23.82	7.34856
23.825	7.89237	23.825	7.39733
23.83	7.85545	23.83	7.43381
23.835	7.82775	23.835	7.46107
23.84	7.80696	23.84	7.48141
23.845	7.79136	23.845	7.49657
23.85	7.77964	23.85	7.50784
23.855	7.77085	23.855	7.5162
23.86	7.76423	23.86	7.52236
23.865	7.75927	23.865	7.52689
23.87	7.36858	23.87	7.91713
23.875	7.45742	23.875	7.82785
23.88	6.89856	23.88	8.38627
23.885	7.10267	23.885	8.18171
23.89	7.25574	23.89	8.0282
23.895	7.37053	23.895	7.91296
23.9	7.45661	23.9	7.82644
23.905	7.52116	23.905	7.76145
23.91	7.56956	23.91	7.71261
23.915	7.99279	23.915	7.28893
23.92	7.92834	23.92	7.35294
23.925	7.87998	23.925	7.40085
23.93	7.84371	23.93	7.43669
23.935	7.81648	23.935	7.46347
23.94	7.79606	23.94	7.48345
23.945	7.78072	23.945	7.49834
23.95	7.76921	23.95	7.50941
23.955	7.76056	23.955	7.51762
23.96	7.75406	23.96	7.52367
23.965	7.74917	23.965	7.52812
23.97	7.35855	23.97	7.9183
23.975	7.83438	23.975	7.44202
23.98	7.80938	23.98	7.46659
23.985	7.79061	23.985	7.48491
23.99	7.77652	23.99	7.49855
23.995	7.76594	23.995	7.50869
24	7.758	24	7.51619
24.005	7.75202	24.005	7.52172
24.01	7.74753	24.01	7.52577
24.015	7.74415	24.015	7.52871
24.02	7.7416	24.02	7.53082
24.025	7.73968	24.025	7.5323
24.03	7.73822	24.03	7.53331
24.035	7.73711	24.035	7.53397
24.04	7.11079	24.04	8.15985
24.045	7.88979	24.045	7.38041
24.05	7.85075	24.05	7.41901
24.055	7.19598	24.055	8.07333
24.06	7.32816	24.06	7.94071
24.065	8.05276	24.065	7.21566
24.07	7.34745	24.07	7.92054
24.075	7.44172	24.075	7.82582
24.08	7.51241	24.08	7.75469
24.085	7.56542	24.085	7.70124
24.09	7.60516	24.09	7.66105
24.095	7.63495	24.095	7.63082
24.1	7.65728	24.1	7.60805
24.105	7.67401	24.105	7.59087
24.11	7.68655	24.11	7.57789
24.115	8.08288	24.115	7.18111
24.12	7.99826	24.12	7.2653
24.125	7.93477	24.125	7.32834
24.13	7.88714	24.13	7.37552
24.135	7.85141	24.135	7.41081
24.14	7.8246	24.14	7.43719
24.145	7.80447	24.145	7.45687
24.15	7.78936	24.15	7.47153
24.155	7.77802	24.155	7.48243
24.16	7.7695	24.16	7.49051
24.165	7.76309	24.165	7.49647
24.17	7.75828	24.17	7.50085
24.175	7.75465	24.175	7.50403
24.18	7.12643	24.18	8.1318
24.185	7.27853	24.185	7.97926
24.19	8.01807	24.19	7.23928
24.195	7.7109	24.195	7.546
24.2	7.72192	24.2	7.53454
24.205	7.73017	24.205	7.52585
24.21	7.73634	24.21	7.51923
24.215	7.74096	24.215	7.51418
24.22	7.7444	24.22	7.51029
24.225	7.74697	24.225	7.50728
24.23	7.74888	24.23	7.50492
24.235	7.7503	24.235	7.50306
24.24	7.75135	24.24	7.50156
24.245	7.75213	24.245	7.50035
24.25	7.75269	24.25	7.49934
24.255	7.7531	24.255	7.49849
24.26	7.75339	24.26	7.49775
24.265	7.7536	24.265	7.4971
24.27	7.75374	24.27	7.49652
24.275	7.75383	24.275	7.49599
24.28	7.75388	24.28	7.4955
24.285	7.7539	24.285	7.49503
24.29	7.75391	24.29	7.49458
24.295	7.75389	24.295	7.49415
24.3	7.75387	24.3	7.49373
24.305	7.75384	24.305	7.49332
24.31	7.7538	24.31	7.49292
24.315	8.1407	24.315	7.10557
24.32	8.049	24.32	7.19683
24.325	7.98021	24.325	7.26518
24.33	7.9286	24.33	7.31634
24.335	7.88988	24.335	7.35462
24.34	7.86082	24.34	7.38323
24.345	7.83901	24.345	7.4046
24.35	7.82264	24.35	7.42052
24.355	7.81035	24.355	7.43237
24.36	7.17564	24.36	8.06664
24.365	7.32286	24.365	7.91898
24.37	7.43326	24.37	7.80814
24.375	7.51605	24.375	7.72491
24.38	7.57812	24.38	7.66239
24.385	7.62466	24.385	7.61541
24.39	7.65955	24.39	7.58008
24.395	7.6857	24.395	7.55348
24.4	7.70529	24.4	7.53344
24.405	7.71998	24.405	7.51832
24.41	9.39637	24.41	9.17228
24.415	9.00277	24.415	8.76178
24.42	8.70758	24.42	8.45382
24.425	8.48619	24.425	8.22278
24.43	8.32015	24.43	8.04943
24.435	8.19562	24.435	7.91934
24.44	8.10223	24.44	7.82169
24.445	8.03219	24.445	7.74838
24.45	7.97967	24.45	7.69332
24.455	7.94028	24.455	7.65195
24.46	7.91074	24.46	7.62085
24.465	7.88858	24.465	7.59744
24.47	7.87197	24.47	7.57982
24.475	7.85952	24.475	7.56652
24.48	7.46324	24.48	7.94342
24.485	7.54789	24.485	7.84415
24.49	7.61139	24.49	7.76962
24.495	7.65901	24.495	7.71365
24.5	7.69474	24.5	7.6716
24.505	7.72153	24.505	7.63998
24.51	7.74163	24.51	7.61619
24.515	7.75671	24.515	7.59827
24.52	7.76802	24.52	7.58476
24.525	7.77651	24.525	7.57455
24.53	7.78288	24.53	7.56681
24.535	7.78766	24.535	7.56094
24.54	7.79125	24.54	7.55645
24.545	7.79394	24.545	7.55301
24.55	7.79597	24.55	7.55036
24.555	7.79749	24.555	7.54829
24.56	7.79864	24.56	7.54667
24.565	7.7995	24.565	7.54537
24.57	7.80015	24.57	7.54432
24.575	7.80064	24.575	7.54346
24.58	7.80101	24.58	7.54274
24.585	7.8013	24.585	7.54212
24.59	7.80151	24.59	7.54158
24.595	7.80168	24.595	7.5411
24.6	7.8018	24.6	7.54067
24.605	7.17642	24.605	8.16574
24.61	7.33066	24.61	8.0112
24.615	7.44634	24.615	7.89522
24.62	7.53311	24.62	7.80816
24.625	7.59818	24.625	7.74279
24.63	7.64699	24.63	7.69369
24.635	7.6836	24.635	7.65679
24.64	7.71106	24.64	7.62904
24.645	7.73166	24.645	7.60815
24.65	7.74711	24.65	7.59241
24.655	7.7587	24.655	7.58053
24.66	7.76739	24.66	7.57154
24.665	7.77392	24.665	7.56473
24.67	7.77881	24.67	7.55954
24.675	7.78249	24.675	7.55558
24.68	7.78525	24.68	7.55253
24.685	7.78732	24.685	7.55017
24.69	7.78887	24.69	7.54832
24.695	6.12465	24.695	5.88147
24.7	6.52735	24.7	6.28212
24.705	6.44242	24.705	6.96947
24.71	7.14751	24.71	6.71607
24.715	6.90751	24.715	7.29474
24.72	7.4963	24.72	6.95984
24.725	7.55601	24.725	7.09043
24.73	7.60077	24.73	7.18828
24.735	7.63433	24.735	7.26157
24.74	7.65948	24.74	7.31645
24.745	7.67833	24.745	7.35751
24.75	7.69245	24.75	7.38822
24.755	7.70302	24.755	7.41115
24.76	7.71093	24.76	7.42826
24.765	7.71685	24.765	7.44099
24.77	7.72127	24.77	7.45045
24.775	7.72457	24.775	7.45745
24.78	7.72703	24.78	7.4626
24.785	7.72886	24.785	7.46637
24.79	7.73021	24.79	7.46911
24.795	7.73121	24.795	7.47107
24.8	7.73194	24.8	7.47244
24.805	7.73248	24.805	7.47338
24.81	7.73286	24.81	7.47398
24.815	7.73313	24.815	7.47434
24.82	7.73332	24.82	7.47452
24.825	7.73344	24.825	7.47456
24.83	7.73351	24.83	7.4745
24.835	7.73355	24.835	7.47435
24.84	7.73357	24.84	7.47415
24.845	7.73356	24.845	7.47391
24.85	7.73354	24.85	7.47363
24.855	7.73351	24.855	7.47332
24.86	7.73347	24.86	7.473
24.865	7.10794	24.865	8.09815
24.87	7.88753	24.87	7.31816
24.875	7.84893	24.875	7.35635
24.88	7.19449	24.88	8.01038
24.885	7.32691	24.885	7.87753
24.89	8.05169	24.89	7.15232
24.895	7.3465	24.895	7.85708
24.9	9.73174	24.9	8.80219
24.905	9.24651	24.905	8.48333
24.91	8.25711	24.91	8.86959
24.915	8.13833	24.915	8.53594
24.92	8.04925	24.92	8.28563
24.925	7.98244	24.925	8.09782
24.93	7.93234	24.93	7.95689
24.935	7.89476	24.935	7.85112
24.94	7.86658	24.94	7.77172
24.945	7.84545	24.945	7.71209
24.95	7.8296	24.95	7.6673
24.955	7.81771	24.955	7.63363
24.96	7.8088	24.96	7.60831
24.965	7.80212	24.965	7.58924
24.97	7.79711	24.97	7.57486
24.975	7.79335	24.975	7.56401
24.98	7.40359	24.98	7.94274
24.985	7.49313	24.985	7.84485
24.99	7.56029	24.99	7.77135
24.995	7.61067	24.995	7.71616
25	20.7978	25	20.824
25.005	20.8435	25.005	20.8103
25.01	20.8823	25.01	20.8043
25.015	21.3026	25.015	20.4171
25.02	21.2404	25.02	20.5129
25.025	21.198	25.025	20.589
25.03	21.1707	25.03	20.6504
25.035	21.1545	25.035	20.7007
25.04	21.1467	25.04	20.7428
25.045	21.7708	25.045	20.1531
25.05	20.9944	25.05	20.9639
25.055	21.0398	25.055	20.953
25.06	21.7036	25.06	20.3237
25.065	21.5826	25.065	20.4792
25.07	19.4439	25.07	19.3217
25.075	19.8769	25.075	19.7269
25.08	20.2061	25.08	20.035
25.085	20.4573	25.085	20.2704
25.09	21.037	25.09	20.0642
25.095	20.7073	25.095	20.6827
25.1	21.2332	25.1	20.382
25.105	20.8631	25.105	20.9296
25.11	19.6933	25.11	18.9103
25.115	20.0894	25.115	19.4329
25.12	20.6292	25.12	19.5905
25.125	21.184	25.125	19.5675
25.13	20.8356	25.13	20.3232
25.135	19.6821	25.135	18.4601
25.14	20.0902	25.14	19.0997
25.145	18.3483	25.145	18.3052
25.15	19.7044	25.15	18.3571
25.155	18.8241	25.155	16.9712
25.16	19.4371	25.16	17.9687
25.165	18.8612	25.165	16.4301
25.17	18.2102	25.17	18.8055
25.175	17.9329	25.175	17.0537
25.18	17.7168	25.18	15.7274
25.185	17.9611	25.185	17.6364
25.19	17.1064	25.19	16.7836
25.195	17.706	25.195	14.8827
25.2	17.9388	25.2	16.984
25.205	17.0754	25.205	16.2754
25.21	16.8045	25.21	15.3466
25.215	16.4476	25.215	14.7829
25.22	16.0766	25.22	14.4426
25.225	15.4715	25.225	11.1625
25.23	15.3461	25.23	14.9856
25.235	14.6643	25.235	11.7872
25.24	14.9337	25.24	11.8883
25.245	14.7434	25.245	12.3354
25.25	12.9248	25.25	10.9948
25.255	15.492	25.255	12.6695
25.26	14.5073	25.26	13.5127
25.265	13.3415	25.265	11.2203
25.27	13.8711	25.27	11.3775
25.275	13.8758	25.275	11.8666
25.28	11.1633	25.28	8.26638
25.285	11.1714	25.285	10.106
25.29	12.4154	25.29	10.2261
25.295	9.77054	25.295	7.21086
25.3	10.696	25.3	8.6222
25.305	9.71392	25.305	8.0044
25.31	6.24667	25.31	3.55932
25.315	7.9647	25.315	5.79044
25.32	7.57687	25.32	5.78733
25.325	5.5951	25.325	4.09401
25.33	7.39951	25.33	6.11467
25.335	7.07636	25.335	5.9536
25.34	6.80838	25.34	5.80709
25.345	8.63408	25.345	6.94992
25.35	7.94494	25.35	6.51225
25.355	4.07158	25.355	2.8274
25.36	6.10795	25.36	5.00507
25.365	2.62774	25.365	1.63074
25.37	4.95889	25.37	4.0412
25.375	1.31272	25.375	1.22832
25.38	3.90116	25.38	3.6779
25.385	5.831	25.385	5.5035
25.39	2.27068	25.39	1.86491
25.395	4.54153	25.395	4.07697
25.4	6.23306	25.4	5.72431
25.405	3.92076	25.405	3.85584
25.41	6.34352	25.41	4.8776
25.415	7.13867	25.415	6.64236
25.42	4.53584	25.42	4.47998
25.425	6.11514	25.425	5.9067
25.43	7.28781	25.43	6.96486
25.435	3.15931	25.435	2.75037
25.44	4.61677	25.44	4.91715
25.445	6.07981	25.445	6.14836
25.45	5.49977	25.45	5.39434
25.455	5.03826	25.455	4.80227
25.46	6.33101	25.46	5.997
25.465	4.99766	25.465	5.84102
25.47	6.25975	25.47	6.73949
25.475	7.19423	25.475	7.40117
25.48	3.27374	25.48	2.50209
25.485	4.892	25.485	4.15006
25.49	6.09349	25.49	5.37374
25.495	5.31699	25.495	4.61379
25.5	6.76019	25.5	5.29543
25.505	7.44845	25.505	6.17615
25.51	3.99607	25.51	4.119
25.515	5.31949	25.515	5.2422
25.52	2.58193	25.52	3.12829
25.525	4.58693	25.525	4.06331
25.53	2.36557	25.53	1.8031
25.535	3.98882	25.535	3.39714
25.54	5.19373	25.54	4.58005
25.545	4.18093	25.545	4.02773
25.55	5.30105	25.55	5.0103
25.555	6.12852	25.555	5.73454
25.56	3.79266	25.56	2.54727
25.565	5.33494	25.565	3.44075
25.57	6.09709	25.57	4.47993
25.575	4.36509	25.575	4.2066
25.58	5.3275	25.58	5.01638
25.585	3.09268	25.585	1.8931
25.59	5.98905	25.59	4.88677
25.595	3.55374	25.595	1.75047
25.6	4.0088	25.6	3.6944
25.605	6.62586	25.605	6.18147
25.61	4.36793	25.61	2.27819
25.615	6.47803	25.615	5.45554
25.62	6.77859	25.62	5.79274
25.625	4.04718	25.625	2.31482
25.63	6.33235	25.63	5.28084
25.635	6.62369	25.635	5.59992
25.64	6.82913	25.64	5.82607
25.645	6.97011	25.645	5.98252
25.65	7.44969	25.65	5.69973
25.655	7.41438	25.655	5.85629
25.66	7.7617	25.66	5.57353
25.665	9.05401	25.665	7.63402
25.67	8.6006	25.67	7.27383
25.675	8.6343	25.675	6.60349
25.68	8.2645	25.68	6.46931
25.685	8.36088	25.685	5.96842
25.69	8.42499	25.69	5.57436
25.695	9.74335	25.695	7.31273
25.7	9.06796	25.7	6.95228
25.705	10.2135	25.705	8.33397
25.71	9.79548	25.71	7.31904
25.715	10.7522	25.715	8.59173
25.72	9.8055	25.72	7.88197
25.725	10.7476	25.725	9.00165
25.73	8.51146	25.73	6.12478
25.735	9.75544	25.735	7.65184
25.74	8.78564	25.74	7.37134
25.745	10.5772	25.745	7.94602
25.75	9.63332	25.75	7.33595
25.755	8.67348	25.755	7.10346
25.76	10.0855	25.76	8.10106
25.765	9.62578	25.765	7.03933
25.77	10.5511	25.77	8.27678
25.775	9.19376	25.775	7.9274
25.78	10.5965	25.78	8.54843
25.785	9.98934	25.785	7.34469
25.79	10.804	25.79	8.47559
25.795	9.75064	25.795	7.65933
25.8	10.6125	25.8	8.69895
25.805	11.2599	25.805	9.47961
25.81	10.0811	25.81	8.40063
25.815	10.8489	25.815	9.24321
25.82	11.4257	25.82	9.87605
25.825	9.80696	25.825	9.07315
25.83	10.6266	25.83	9.74089
25.835	11.2424	25.835	10.2426
25.84	9.65279	25.84	9.34132
25.845	10.4943	25.845	9.93526
25.85	9.07408	25.85	9.10315
25.855	10.6681	25.855	9.12346
25.86	9.57582	25.86	8.09743
25.865	10.0215	25.865	9.36658
25.87	9.07315	25.87	8.27202
25.875	10.0137	25.875	9.10281
25.88	10.333	25.88	10.1137
25.885	10.9553	25.885	10.4908
25.89	9.37053	25.89	9.49594
25.895	10.2156	25.895	10.0197
25.9	10.4633	25.9	10.8002
25.905	9.60503	25.905	9.10058
25.91	9.98469	25.91	10.1059
25.915	8.98676	25.915	8.81341
25.92	9.5031	25.92	9.88264
25.925	10.2731	25.925	10.3035
25.93	8.41208	25.93	9.72832
25.935	9.43179	25.935	10.1849
25.94	10.4359	25.94	10.2895
25.945	8.89609	25.945	9.33165
25.95	9.00089	25.95	10.6569
25.955	8.17863	25.955	9.22244
25.96	8.82666	25.96	10.1851
25.965	9.30838	25.965	10.9129
25.97	8.38692	25.97	9.41222
25.975	9.58602	25.975	9.69973
25.98	9.85776	25.98	10.5444
25.985	8.39185	25.985	9.51825
25.99	8.93897	25.99	10.4053
25.995	9.34498	25.995	11.0763
26	8.3667	26	9.53295
26.005	9.52314	26.005	9.78845
26.01	9.76285	26.01	10.6091
26.015	8.27288	26.015	9.56485
26.02	8.80192	26.02	10.4383
26.025	9.58127	26.025	10.7121
26.03	8.35269	26.03	9.40113
26.035	8.83634	26.035	10.3159
26.04	7.14235	26.04	9.72916
26.045	8.28715	26.045	10.1769
26.05	9.14642	26.05	10.5132
26.055	8.36468	26.055	8.86216
26.06	8.80157	26.06	9.90366
26.065	9.51175	26.065	10.3035
26.07	7.9927	26.07	9.32546
26.075	8.8868	26.075	9.86152
26.08	9.17107	26.08	10.651
26.085	8.10136	26.085	9.19647
26.09	8.56365	26.09	10.1439
26.095	9.91832	26.095	9.84766
26.1	9.92473	26.1	10.6362
26.105	10.312	26.105	10.8463
26.11	8.93769	26.11	9.33897
26.115	9.17149	26.115	10.2468
26.12	9.7293	26.12	10.5464
26.125	9.10834	26.125	8.48063
26.13	9.67082	26.13	9.20598
26.135	9.70631	26.135	10.1374
26.14	10.1154	26.14	10.4546
26.145	8.75735	26.145	9.02761
26.15	9.39028	26.15	9.60871
26.155	9.4786	26.155	10.4319
26.16	8.26186	26.16	9.00257
26.165	9.62622	26.165	8.9564
26.17	10.0268	26.17	9.54548
26.175	10.3277	26.175	9.98774
26.18	10.5539	26.18	10.3199
26.185	9.05878	26.185	8.90403
26.19	9.58881	26.19	9.49346
26.195	9.98686	26.195	9.93596
26.2	10.2859	26.2	10.2683
26.205	10.5107	26.205	10.5179
26.21	10.6799	26.21	10.7056
26.215	9.14184	26.215	9.18134
26.22	10.2652	26.22	9.06399
26.225	10.4849	26.225	9.59965
26.23	10.6503	26.23	10.0018
26.235	10.7747	26.235	10.3038
26.24	9.20322	26.24	8.86534
26.245	9.67595	26.245	9.43776
26.25	10.031	26.25	9.86746
26.255	10.2977	26.255	10.1901
26.26	10.4983	26.26	10.4325
26.265	10.6492	26.265	10.6147
26.27	9.72294	26.27	8.46081
26.275	10.0563	26.275	9.11994
26.28	10.3068	26.28	9.61465
26.285	8.82979	26.285	8.32066
26.29	9.37334	26.29	9.0014
26.295	9.78146	26.295	9.5123
26.3	10.088	26.3	9.89583
26.305	10.7053	26.305	9.79687
26.31	9.12143	26.31	8.43946
26.315	9.58486	26.315	9.07263
26.32	9.93287	26.32	9.54783
26.325	10.8198	26.325	9.27908
26.33	10.8621	26.33	9.70111
26.335	10.8943	26.335	10.018
26.34	9.25347	26.34	8.59053
26.345	9.67414	26.345	9.17116
26.35	9.99006	26.35	9.60694
26.355	10.2274	26.355	9.93407
26.36	8.74043	26.36	8.51434
26.365	9.27648	26.365	9.10072
26.37	9.67891	26.37	9.54079
26.375	9.98112	26.375	9.87113
26.38	10.2082	26.38	10.1192
26.385	10.3788	26.385	10.3055
26.39	9.46733	26.39	8.15464
26.395	9.81168	26.395	8.81594
26.4	10.0703	26.4	9.31218
26.405	10.2647	26.405	9.68462
26.41	10.4108	26.41	9.96423
26.415	10.5208	26.415	10.1742
26.42	8.93823	26.42	8.66654
26.425	9.40256	26.425	9.18694
26.43	9.75117	26.43	9.57749
26.435	10.013	26.435	9.87065
26.44	10.2097	26.44	10.0908
26.445	10.3576	26.445	10.2561
26.45	10.4688	26.45	10.3804
26.455	10.5526	26.455	10.4738
26.46	8.95043	26.46	8.87873
26.465	9.40002	26.465	9.33354
26.47	9.73754	26.47	9.67489
26.475	9.99101	26.475	9.93112
26.48	10.1814	26.48	10.1235
26.485	10.3246	26.485	10.2681
26.49	9.3924	26.49	8.08582
26.495	9.72118	26.495	8.7235
26.5	9.96807	26.5	9.20198
26.505	10.1536	26.505	9.56104
26.51	10.293	26.51	9.83055
26.515	10.3979	26.515	10.0329
26.52	8.42452	26.52	8.90641
26.525	8.97756	26.525	9.33076
26.53	9.39263	26.53	9.64921
26.535	9.70423	26.535	9.88824
26.54	9.93822	26.54	10.0677
26.545	8.44862	26.545	8.53709
26.55	8.98258	26.55	9.0402
26.555	9.38334	26.555	9.4177
26.56	9.68418	26.56	9.701
26.565	9.52314	26.565	10.3006
26.57	9.7845	26.57	10.3686
26.575	9.9808	26.575	10.4198
26.58	10.1283	26.58	10.4583
26.585	10.2392	26.585	10.4874
26.59	8.65726	26.59	8.84396
26.595	9.12195	26.595	9.26244
26.6	9.47073	26.6	9.57646
26.605	9.73257	26.605	9.81212
26.61	10.5547	26.61	9.36354
26.615	10.5483	26.615	9.65052
26.62	8.49136	26.62	8.58746
26.625	8.98168	26.625	9.05932
26.63	9.34966	26.63	9.41335
26.635	9.62589	26.635	9.67901
26.64	9.8333	26.64	9.87838
26.645	9.98909	26.645	10.028
26.65	10.1062	26.65	10.1404
26.655	8.52883	26.655	8.55943
26.66	8.99694	26.66	9.0247
26.665	8.96129	26.665	9.7607
26.67	9.31664	26.67	9.93096
26.675	9.58338	26.675	10.0588
26.68	9.78365	26.68	10.1547
26.685	9.93407	26.685	10.2268
26.69	10.0471	26.69	10.281
26.695	10.1321	26.695	10.3217
26.7	10.1961	26.7	10.3524
26.705	10.2443	26.705	10.3755
26.71	9.89369	26.71	10.7799
26.715	8.34745	26.715	9.03605
26.72	8.83886	26.72	9.37915
26.725	9.20762	26.725	9.63656
26.73	9.48439	26.73	9.82972
26.735	9.69217	26.735	9.97468
26.74	9.8482	26.74	10.0835
26.745	9.96543	26.745	10.1652
26.75	9.6666	26.75	10.6135
26.755	9.82455	26.755	10.568
26.76	8.27782	26.76	8.86851
26.765	8.76884	26.765	9.24489
26.77	9.13729	26.77	9.52724
26.775	9.41381	26.775	9.73908
26.78	9.62138	26.78	9.89804
26.785	9.77724	26.785	10.0173
26.79	9.89432	26.79	10.1069
26.795	9.98231	26.795	10.1741
26.8	10.0485	26.8	10.2246
26.805	10.0983	26.805	10.2625
26.81	10.1358	26.81	10.2911
26.815	10.1642	26.815	10.3125
26.82	8.52022	26.82	8.66332
26.825	8.9383	26.825	9.07736
26.83	9.63897	26.83	9.00099
26.835	9.78278	26.835	9.32564
26.84	9.89079	26.84	9.56917
26.845	9.34648	26.845	10.3774
26.85	9.56169	26.85	10.3603
26.855	9.72325	26.855	10.3475
26.86	9.84459	26.86	10.338
26.865	9.93575	26.865	10.331
26.87	10.3912	26.87	9.93876
26.875	10.3511	26.875	10.0265
26.88	10.3212	26.88	10.0924
26.885	10.299	26.885	10.1419
26.89	10.2824	26.89	10.179
26.895	10.2702	26.895	10.207
26.9	10.2612	26.9	10.228
26.905	10.2546	26.905	10.2438
26.91	10.2498	26.91	10.2557
26.915	10.2463	26.915	10.2647
26.92	8.57852	26.92	8.60606
26.925	9.36565	26.925	8.62609
26.93	9.18733	26.93	9.40996
26.935	9.82254	26.935	9.22909
26.94	9.91722	26.94	9.47534
26.945	9.98838	26.945	9.66006
26.95	10.0419	26.95	9.79864
26.955	9.84363	26.955	10.1411
26.96	9.93649	26.96	10.1567
26.965	10.0063	26.965	10.1683
26.97	10.0587	26.97	10.1771
26.975	10.0982	26.975	10.1837
26.98	10.128	26.98	10.1887
26.985	10.1505	26.985	10.1925
26.99	10.5544	26.99	9.80848
26.995	10.4757	26.995	9.90233
27	10.4167	27	9.97276
27.005	10.3727	27.005	10.0256
27.01	10.3398	27.01	10.0653
27.015	10.3152	27.015	10.0951
27.02	10.6839	27.02	9.73054
27.025	10.5787	27.025	9.83902
27.03	10.4999	27.03	9.92042
27.035	10.441	27.035	9.9815
27.04	10.3969	27.04	10.0274
27.045	10.364	27.045	10.0618
27.05	10.3395	27.05	10.0876
27.055	10.3212	27.055	10.1071
27.06	10.6946	27.06	9.73473
27.065	10.593	27.065	9.83738
27.07	10.5168	27.07	9.91441
27.075	9.83442	27.075	10.5977
27.08	9.94601	27.08	10.4869
27.085	8.36445	27.085	8.73849
27.09	8.82929	27.09	9.07807
27.095	9.565	27.095	8.94583
27.1	9.73503	27.1	9.22854
27.105	9.86267	27.105	9.44059
27.11	9.95853	27.11	9.59964
27.115	10.0305	27.115	9.71895
27.12	10.0847	27.12	9.80846
27.125	10.1254	27.125	9.8756
27.13	10.1561	27.13	9.92598
27.135	10.5661	27.135	9.57684
27.14	10.4919	27.14	9.69686
27.145	10.4364	27.145	9.7869
27.15	10.3949	27.15	9.85445
27.155	10.3639	27.155	9.90513
27.16	9.71523	27.16	10.5686
27.165	9.85216	27.165	10.443
27.17	9.95497	27.17	10.3488
27.175	10.0322	27.175	10.2782
27.18	10.0902	27.18	10.2252
27.185	10.1339	27.185	10.1856
27.19	10.1668	27.19	10.1558
27.195	10.1915	27.195	10.1335
27.2	10.2102	27.2	10.1168
27.205	10.6113	27.205	9.71737
27.21	10.1434	27.21	10.1866
27.215	10.5615	27.215	9.76975
27.22	10.4932	27.22	9.83899
27.225	10.4422	27.225	9.89094
27.23	10.404	27.23	9.92993
27.235	10.3755	27.235	9.95918
27.24	10.3543	27.24	9.98115
27.245	10.3384	27.245	9.99764
27.25	10.3267	27.25	10.01
27.255	9.69253	27.255	10.6448
27.26	9.84029	27.26	10.4977
27.265	9.95124	27.265	10.3873
27.27	10.0346	27.27	10.3046
27.275	10.0972	27.275	10.2425
27.28	10.1443	27.28	10.196
27.285	10.1797	27.285	10.1612
27.29	10.2064	27.29	10.1351
27.295	10.2265	27.295	10.1155
27.3	10.2417	27.3	10.1008
27.305	10.2533	27.305	10.0899
27.31	10.2621	27.31	10.0817
27.315	10.2688	27.315	10.0755
27.32	10.6608	27.32	9.68399
27.325	10.5732	27.325	9.77223
27.33	10.5075	27.33	9.83844
27.335	8.16754	27.335	8.84819
27.34	8.68682	27.34	9.13313
27.345	9.07637	27.345	9.34684
27.35	9.36864	27.35	9.50712
27.355	9.58794	27.355	9.62734
27.36	9.75251	27.36	9.7175
27.365	9.87604	27.365	9.78513
27.37	9.96879	27.37	9.83585
27.375	10.0384	27.375	9.8739
27.38	10.0908	27.38	9.90243
27.385	10.1302	27.385	9.92384
27.39	10.1598	27.39	9.93989
27.395	10.1821	27.395	9.95194
27.4	10.1989	27.4	9.96098
27.405	10.2116	27.405	9.96776
27.41	10.2213	27.41	9.97284
27.415	10.2286	27.415	9.97666
27.42	10.2342	27.42	9.97953
27.425	10.2385	27.425	9.98168
27.43	10.2418	27.43	9.9833
27.435	10.2444	27.435	9.98452
27.44	9.62099	27.44	10.6109
27.445	9.77678	27.445	10.4574
27.45	9.89373	27.45	10.3423
27.455	9.98153	27.455	10.256
27.46	10.0475	27.46	10.1913
27.465	10.097	27.465	10.1427
27.47	10.1343	27.47	10.1063
27.475	10.1624	27.475	10.079
27.48	10.1835	27.48	10.0585
27.485	10.1995	27.485	10.0432
27.49	8.54613	27.49	8.36629
27.495	8.9571	27.495	8.75949
27.5	9.26541	27.5	9.05437
27.505	9.49672	27.505	9.27551
27.51	9.0448	27.51	10.0668
27.515	9.32921	27.515	10.037
27.52	9.15565	27.52	10.4016
27.525	9.79437	27.525	9.90625
27.53	9.89163	27.53	9.91656
27.535	9.96465	27.535	9.92428
27.54	10.0195	27.54	9.93005
27.545	10.0607	27.545	9.93437
27.55	10.0917	27.55	9.93759
27.555	10.115	27.555	9.94
27.56	10.1326	27.56	9.94178
27.565	10.1458	27.565	9.94311
27.57	9.53036	27.57	10.5696
27.575	9.69211	27.575	10.4161
27.58	9.81351	27.58	10.301
27.585	9.90463	27.585	10.2147
27.59	9.97305	27.59	10.1499
27.595	10.0244	27.595	10.1014
27.6	10.0631	27.6	10.0649
27.605	10.0921	27.605	10.0375
27.61	10.114	27.61	10.017
27.615	10.1304	27.615	10.0016
27.62	10.1429	27.62	9.99003
27.625	10.1523	27.625	9.98134
27.63	10.1594	27.63	9.97481
27.635	10.1648	27.635	9.9699
27.64	10.169	27.64	9.9662
27.645	10.1722	27.645	9.96341
27.65	10.1746	27.65	9.96131
27.655	10.1765	27.655	9.95972
27.66	10.1781	27.66	9.95851
27.665	9.55381	27.665	10.5831
27.67	9.70896	27.67	10.4282
27.675	9.82541	27.675	10.312
27.68	9.91281	27.68	10.2249
27.685	9.97845	27.685	10.1596
27.69	10.0277	27.69	10.1105
27.695	10.0648	27.695	10.0737
27.7	10.0927	27.7	10.0461
27.705	10.1136	27.705	10.0254
27.71	10.1294	27.71	10.0099
27.715	10.1414	27.715	9.99819
27.72	10.1504	27.72	9.98942
27.725	10.1573	27.725	9.98283
27.73	10.1625	27.73	9.97787
27.735	10.1664	27.735	9.97415
27.74	10.5565	27.74	9.58439
27.745	10.4672	27.745	9.67393
27.75	9.77482	27.75	10.3665
27.755	9.87889	27.755	10.2627
27.76	9.95702	27.76	10.1849
27.765	10.0157	27.765	10.1264
27.77	10.0598	27.77	10.0826
27.775	10.0929	27.775	10.0497
27.78	10.1178	27.78	10.0251
27.785	10.1366	27.785	10.0065
27.79	10.1508	27.79	9.99264
27.795	10.1615	27.795	9.98221
27.8	8.50416	27.8	8.30897
27.805	8.91213	27.805	8.70491
27.81	9.21816	27.81	9.00183
27.815	9.44775	27.815	9.22449
27.82	9.61999	27.82	9.39145
27.825	9.12375	27.825	10.1421
27.83	9.3749	27.83	10.0818
27.835	9.56331	27.835	10.0366
27.84	9.70468	27.84	10.0026
27.845	10.1977	27.845	9.59015
27.85	10.1857	27.85	9.66265
27.855	10.1767	27.855	9.71699
27.86	10.17	27.86	9.75771
27.865	10.1651	27.865	9.78823
27.87	10.1614	27.87	9.81109
27.875	10.1587	27.875	9.8282
27.88	10.1568	27.88	9.841
27.885	10.1553	27.885	9.85058
27.89	10.1543	27.89	9.85773
27.895	10.1536	27.895	9.86306
27.9	10.1532	27.9	9.86703
27.905	10.1529	27.905	9.86998
27.91	10.1527	27.91	9.87216
27.915	10.1526	27.915	9.87376
27.92	9.52716	27.92	10.5004
27.925	9.68138	27.925	10.3471
27.93	9.7971	27.93	10.2321
27.935	9.88394	27.935	10.1458
27.94	9.94913	27.94	10.0811
27.945	9.99807	27.945	10.0325
27.95	10.0348	27.95	9.99601
27.955	10.0625	27.955	9.96863
27.96	10.0832	27.96	9.94806
27.965	10.0989	27.965	9.93261
27.97	10.1107	27.97	9.92099
27.975	10.1195	27.975	9.91225
27.98	10.1263	27.98	9.90566
27.985	10.1314	27.985	9.9007
27.99	10.1352	27.99	9.89694
27.995	10.1382	27.995	9.8941
28	10.1405	28	9.89193
28.005	10.1422	28.005	9.89028
28.01	10.1436	28.01	9.88902
28.015	9.51922	28.015	10.5135
28.02	10.0612	28.02	9.97165
28.025	9.69892	28.025	10.334
28.03	9.80913	28.03	10.2239
28.035	9.89184	28.035	10.1413
28.04	10.3409	28.04	9.69238
28.045	9.90889	28.045	10.1245
28.05	9.96682	28.05	10.0666
28.055	10.0103	28.055	10.0232
28.06	10.43	28.06	9.60371
28.065	10.3629	28.065	9.67091
28.07	10.3126	28.07	9.72127
28.075	10.275	28.075	9.75902
28.08	10.2468	28.08	9.78731
28.085	10.2257	28.085	9.80849
28.09	10.2099	28.09	9.82435
28.095	10.1982	28.095	9.83622
28.1	10.1894	28.1	9.84509
28.105	10.1829	28.105	9.85172
28.11	9.79108	28.11	10.2436
28.115	9.87916	28.115	10.1556
28.12	9.94528	28.12	10.0896
28.125	11.6603	28.125	11.7055
28.13	10.6703	28.13	11.892
28.135	10.5511	28.135	11.4085
28.14	10.4618	28.14	11.046
28.145	10.3949	28.145	10.774
28.15	10.3448	28.15	10.5701
28.155	10.3073	28.155	10.4171
28.16	10.2792	28.16	10.3023
28.165	10.2582	28.165	10.2163
28.17	10.2426	28.17	10.1517
28.175	10.2309	28.175	10.1033
28.18	10.2222	28.18	10.067
28.185	10.2158	28.185	10.0397
28.19	10.211	28.19	10.0193
28.195	10.2075	28.195	10.0039
28.2	10.205	28.2	9.9924
28.205	10.2031	28.205	9.98375
28.21	10.2018	28.21	9.97726
28.215	10.2009	28.215	9.97239
28.22	10.2003	28.22	9.96872
28.225	10.1999	28.225	9.96597
28.23	10.1997	28.23	9.96389
28.235	10.1996	28.235	9.96233
28.24	10.1996	28.24	9.96115
28.245	10.1997	28.245	9.96025
28.25	10.1998	28.25	9.95957
28.255	10.2	28.255	9.95906
28.26	10.2002	28.26	9.95866
28.265	8.53499	28.265	8.29296
28.27	8.93705	28.27	8.69455
28.275	9.23865	28.275	8.99572
28.28	9.4649	28.28	9.22157
28.285	9.63465	28.285	9.39093
28.29	9.37506	28.29	9.90486
28.295	9.56228	28.295	9.90843
28.3	9.70276	28.3	9.91107
28.305	9.18268	28.305	10.5385
28.31	9.41595	28.31	10.3858
28.315	9.59096	28.315	10.2712
28.32	9.72226	28.32	10.1853
28.325	9.82079	28.325	10.1208
28.33	9.89474	28.33	10.0724
28.335	9.95025	28.335	10.0361
28.34	9.99194	28.34	10.0088
28.345	10.0233	28.345	9.98832
28.35	10.0468	28.35	9.97294
28.355	10.0645	28.355	9.96138
28.36	10.0778	28.36	9.95268
28.365	10.0879	28.365	9.94613
28.37	10.0955	28.37	9.94119
28.375	10.1012	28.375	9.93746
28.38	10.1056	28.38	9.93464
28.385	10.1089	28.385	9.93249
28.39	10.1114	28.39	9.93086
28.395	10.1134	28.395	9.92961
28.4	10.1149	28.4	9.92864
28.405	10.1161	28.405	9.9279
28.41	10.117	28.41	9.92731
28.415	10.1178	28.415	9.92684
28.42	10.1184	28.42	9.92646
28.425	10.1189	28.425	9.92616
28.43	10.1194	28.43	9.9259
28.435	10.1198	28.435	9.92568
28.44	10.1201	28.44	9.92549
28.445	10.1204	28.445	9.92532
28.45	10.1207	28.45	9.92517
28.455	10.121	28.455	9.92503
28.46	10.1212	28.46	9.9249
28.465	10.1214	28.465	9.92477
28.47	10.1217	28.47	9.92465
28.475	10.1219	28.475	9.92454
28.48	10.1221	28.48	9.92443
28.485	10.1223	28.485	9.92432
28.49	10.1225	28.49	9.92421
28.495	10.1228	28.495	9.9241
28.5	10.123	28.5	9.92399
28.505	10.1232	28.505	9.92389
28.51	10.1234	28.51	9.92378
28.515	10.1236	28.515	9.92368
28.52	9.73685	28.52	10.3105
28.525	9.82872	28.525	10.2188
28.53	9.89766	28.53	10.1499
28.535	9.94943	28.535	10.0983
28.54	9.9883	28.54	10.0595
28.545	10.0175	28.545	10.0304
28.55	10.0395	28.55	10.0085
28.555	10.056	28.555	9.9921
28.56	10.0684	28.56	9.97977
28.565	10.0778	28.565	9.97049
28.57	10.0849	28.57	9.9635
28.575	10.0903	28.575	9.95823
28.58	10.0943	28.58	9.95426
28.585	10.0974	28.585	9.95125
28.59	10.0998	28.59	9.94897
28.595	10.1017	28.595	9.94723
28.6	10.1031	28.6	9.9459
28.605	10.1042	28.605	9.94488
28.61	10.1051	28.61	9.94409
28.615	10.1058	28.615	9.94347
28.62	10.1064	28.62	9.94298
28.625	10.1069	28.625	9.94258
28.63	10.1074	28.63	9.94226
28.635	8.05539	28.635	8.66354
28.64	8.5492	28.64	8.97349
28.645	8.91959	28.645	9.2059
28.65	9.19741	28.65	9.38016
28.655	9.40581	28.655	9.51082
28.66	9.56215	28.66	9.60876
28.665	9.67943	28.665	9.68218
28.67	9.76742	28.67	9.73719
28.675	9.83345	28.675	9.77841
28.68	9.88301	28.68	9.80927
28.685	9.9202	28.685	9.83238
28.69	9.94813	28.69	9.84966
28.695	9.96911	28.695	9.86258
28.7	9.3594	28.7	10.4977
28.705	9.52542	28.705	10.3507
28.71	9.64997	28.71	10.2405
28.715	9.74341	28.715	10.1577
28.72	9.81352	28.72	10.0956
28.725	9.86613	28.725	10.049
28.73	9.90563	28.73	10.014
28.735	9.93528	28.735	9.98766
28.74	9.95755	28.74	9.96788
28.745	9.97428	28.745	9.95301
28.75	9.98686	28.75	9.94181
28.755	9.99633	28.755	9.93337
28.76	10.0035	28.76	9.92699
28.765	10.0088	28.765	9.92217
28.77	10.0129	28.77	9.9185
28.775	10.016	28.775	9.91571
28.78	10.0183	28.78	9.91357
28.785	10.0201	28.785	9.91192
28.79	10.26	28.79	9.67211
28.795	10.1986	28.795	9.73361
28.8	10.1525	28.8	9.77969
28.805	10.118	28.805	9.81421
28.81	10.4791	28.81	9.4531
28.815	9.98117	28.815	9.95104
28.82	9.9896	28.82	9.94258
28.825	9.99596	28.825	9.93619
28.83	10.0008	28.83	9.93136
28.835	10.0044	28.835	9.92768
28.84	10.0071	28.84	9.92489
28.845	10.0092	28.845	9.92274
28.85	10.0109	28.85	9.92109
28.855	10.0121	28.855	9.9198
28.86	10.0131	28.86	9.91879
28.865	10.0138	28.865	9.91799
28.87	11.6798	28.87	11.5827
28.875	11.2785	28.875	11.1804
28.88	10.9775	28.88	10.8786
28.885	10.7518	28.885	10.6522
28.89	10.5826	28.89	10.4824
28.895	10.4558	28.895	10.355
28.9	10.3607	28.9	10.2595
28.905	10.2894	28.905	10.1878
28.91	10.236	28.91	10.134
28.915	10.196	28.915	10.0936
28.92	10.1661	28.92	10.0633
28.925	10.1437	28.925	10.0405
28.93	10.1269	28.93	10.0235
28.935	10.1144	28.935	10.0106
28.94	9.71815	28.94	10.3879
28.945	9.80286	28.945	10.289
28.95	9.86644	28.95	10.2147
28.955	9.91418	28.955	10.1591
28.96	9.95003	28.96	10.1173
28.965	9.97697	28.965	10.0859
28.97	9.99723	28.97	10.0623
28.975	10.0125	28.975	10.0446
28.98	10.024	28.98	10.0313
28.985	10.0326	28.985	10.0213
28.99	10.0392	28.99	10.0138
28.995	10.0441	28.995	10.0082
29	10.0479	29	10.0039
29.005	10.0508	29.005	10.0006
29.01	10.053	29.01	9.99819
29.015	10.0547	29.015	9.99632
29.02	10.0561	29.02	9.9949
29.025	10.0571	29.025	9.9938
29.03	10.058	29.03	9.99296
29.035	10.0586	29.035	9.9923
29.04	10.0592	29.04	9.99177
29.045	10.0597	29.045	9.99136
29.05	10.0601	29.05	9.99102
29.055	10.0604	29.055	9.99074
29.06	10.0608	29.06	9.9905
29.065	10.0611	29.065	9.9903
29.07	10.0613	29.07	9.99012
29.075	10.0616	29.075	9.98996
29.08	10.0618	29.08	9.98981
29.085	10.0621	29.085	9.98968
29.09	9.67533	29.09	10.3765
29.095	9.76721	29.095	10.2847
29.1	9.83617	29.1	10.2159
29.105	9.88794	29.105	10.1642
29.11	9.92682	29.11	10.1254
29.115	9.95603	29.115	10.0963
29.12	9.97799	29.12	10.0744
29.125	9.99451	29.125	10.058
29.13	10.007	29.13	10.0457
29.135	10.0163	29.135	10.0364
29.14	10.0234	29.14	10.0294
29.145	10.0288	29.145	10.0241
29.15	10.0329	29.15	10.0202
29.155	10.036	29.155	10.0172
29.16	10.0384	29.16	10.0149
29.165	10.0402	29.165	10.0131
29.17	10.0416	29.17	10.0118
29.175	10.0428	29.175	10.0108
29.18	10.0437	29.18	10.01
29.185	10.0444	29.185	10.0094
29.19	10.045	29.19	10.0089
29.195	10.0455	29.195	10.0085
29.2	10.0459	29.2	10.0082
29.205	10.0463	29.205	10.0079
29.21	10.0466	29.21	10.0077
29.215	10.0469	29.215	10.0075
29.22	10.0472	29.22	10.0073
29.225	10.0474	29.225	10.0072
29.23	10.0477	29.23	10.007
29.235	10.0479	29.235	10.0069
29.24	10.0481	29.24	10.0068
29.245	10.0484	29.245	10.0066
29.25	10.0486	29.25	10.0065
29.255	10.0488	29.255	10.0064
29.26	10.049	29.26	10.0063
29.265	10.0492	29.265	10.0062
29.27	10.0494	29.27	10.0061
29.275	10.0496	29.275	10.006
29.28	10.0498	29.28	10.0059
29.285	10.0501	29.285	10.0058
29.29	10.0503	29.29	10.0057
29.295	10.0505	29.295	10.0055
29.3	10.0507	29.3	10.0054
29.305	10.0509	29.305	10.0053
29.31	10.0511	29.31	10.0052
29.315	10.0513	29.315	10.0051
29.32	10.0515	29.32	10.005
29.325	10.0517	29.325	10.0049
29.33	10.0519	29.33	10.0048
29.335	10.0521	29.335	10.0047
29.34	10.0523	29.34	10.0046
29.345	10.0525	29.345	10.0045
29.35	10.0527	29.35	10.0044
29.355	10.0529	29.355	10.0043
29.36	10.0532	29.36	10.0042
29.365	10.0534	29.365	10.0041
29.37	10.0536	29.37	10.004
29.375	10.0538	29.375	10.0039
29.38	10.054	29.38	10.0038
29.385	10.0542	29.385	10.0037
29.39	10.0544	29.39	10.0036
29.395	10.0546	29.395	10.0035
29.4	10.0548	29.4	10.0034
29.405	10.055	29.405	10.0033
29.41	10.0552	29.41	10.0032
29.415	10.0554	29.415	10.003
29.42	10.0556	29.42	10.0029
29.425	10.0558	29.425	10.0028
29.43	10.6815	29.43	9.37726
29.435	9.90208	29.435	10.1568
29.44	10.5663	29.44	9.49267
29.445	10.4413	29.445	9.61782
29.45	10.3475	29.45	9.71166
29.455	10.2773	29.455	9.78201
29.46	10.2246	29.46	9.83474
29.465	10.1852	29.465	9.87427
29.47	10.1557	29.47	9.90388
29.475	10.1336	29.475	9.92607
29.48	10.1171	29.48	9.94268
29.485	10.1048	29.485	9.95511
29.49	10.0956	29.49	9.96441
29.495	10.0887	29.495	9.97136
29.5	10.0837	29.5	9.97654
29.505	10.0799	29.505	9.9804
29.51	10.0771	29.51	9.98327
29.515	10.0751	29.515	9.98539
29.52	10.0737	29.52	9.98696
29.525	10.0726	29.525	9.98811
29.53	10.0719	29.53	9.98894
29.535	10.0714	29.535	9.98954
29.54	10.0711	29.54	9.98996
29.545	10.0709	29.545	9.99025
29.55	10.0708	29.55	9.99044
29.555	10.0708	29.555	9.99055
29.56	10.0708	29.56	9.99061
29.565	10.0709	29.565	9.99063
29.57	10.071	29.57	9.99062
29.575	10.0712	29.575	9.99058
29.58	10.0713	29.58	9.99053
29.585	10.0715	29.585	9.99046
29.59	10.0717	29.59	9.99038
29.595	10.0719	29.595	9.9903
29.6	10.072	29.6	9.9902
29.605	10.0722	29.605	9.99011
29.61	10.0724	29.61	9.99001
29.615	9.6857	29.615	10.3769
29.62	9.77756	29.62	10.2851
29.625	9.84651	29.625	10.2163
29.63	9.89827	29.63	10.1646
29.635	9.93715	29.635	10.1258
29.64	9.96636	29.64	10.0967
29.645	9.98832	29.645	10.0749
29.65	10.0048	29.65	10.0584
29.655	10.0173	29.655	10.0461
29.66	10.0267	29.66	10.0368
29.665	10.0338	29.665	10.0298
29.67	10.0391	29.67	10.0246
29.675	10.0432	29.675	10.0206
29.68	10.0463	29.68	10.0176
29.685	10.0487	29.685	10.0153
29.69	9.66361	29.69	10.4005
29.695	9.7567	29.695	10.3075
29.7	9.82657	29.7	10.2377
29.705	9.87902	29.705	10.1854
29.71	9.91842	29.71	10.1461
29.715	9.94801	29.715	10.1166
29.72	9.97027	29.72	10.0944
29.725	9.98701	29.725	10.0778
29.73	9.99961	29.73	10.0653
29.735	9.38364	29.735	10.6814
29.74	10.1705	29.74	9.89465
29.745	10.1374	29.745	9.92785
29.75	9.48711	29.75	10.5782
29.755	9.2358	29.755	10.8296
29.76	9.42923	29.76	10.6363
29.765	9.96131	29.765	10.1043
29.77	9.5916	29.77	10.4741
29.775	9.69624	29.775	10.3696
29.78	9.77477	29.78	10.2912
29.785	9.83372	29.785	10.2323
29.79	9.87798	29.79	10.1882
29.795	9.91123	29.795	10.155
29.8	9.93622	29.8	10.1301
29.805	9.95501	29.805	10.1114
29.81	9.96915	29.81	10.0974
29.815	9.97982	29.815	10.0868
29.82	9.98786	29.82	10.0789
29.825	9.99395	29.825	10.0729
29.83	9.99857	29.83	10.0684
29.835	10.0021	29.835	10.065
29.84	10.0048	29.84	10.0624
29.845	10.0068	29.845	10.0604
29.85	10.0084	29.85	10.0589
29.855	10.0097	29.855	10.0578
29.86	10.0107	29.86	10.0569
29.865	10.0115	29.865	10.0562
29.87	10.0121	29.87	10.0556
29.875	10.3996	29.875	9.66827
29.88	10.3084	29.88	9.75957
29.885	10.2401	29.885	9.82802
29.89	10.1888	29.89	9.87933
29.895	10.1505	29.895	9.91779
29.9	10.1218	29.9	9.94661
29.905	10.1003	29.905	9.9682
29.91	10.0842	29.91	9.98436
29.915	10.0722	29.915	9.99646
29.92	10.0633	29.92	10.0055
29.925	10.0566	29.925	10.0123
29.93	10.0517	29.93	10.0173
29.935	10.048	29.935	10.0211
29.94	10.0453	29.94	10.0239
29.945	10.0434	29.945	10.0259
29.95	10.042	29.95	10.0275
29.955	10.0409	29.955	10.0286
29.96	10.0402	29.96	10.0294
29.965	10.0398	29.965	10.03
29.97	10.0394	29.97	10.0304
29.975	10.4262	29.975	9.64371
29.98	10.3345	29.98	9.73555
29.985	10.2657	29.985	9.80441
29.99	10.2142	29.99	9.85602
29.995	10.1756	29.995	9.89471
30	1.01168	30	-7.23987
30.005	0.974363	30.005	-7.23736
30.01	0.942497	30.01	-7.24029
30.015	0.914722	30.015	-7.24732
30.02	0.890016	30.02	-7.25742
30.025	0.480664	30.025	-6.88287
30.03	0.938586	30.03	-7.3756
30.035	0.270807	30.035	-6.74263
30.04	0.389368	30.04	-6.89599
30.045	0.474413	30.045	-7.01584
30.05	0.53432	30.05	-7.11055
30.055	0.575374	30.055	-7.18641
30.06	0.602289	30.06	-7.24813
30.065	-0.0068829	30.065	-6.67376
30.07	2.20798	30.07	-5.59263
30.075	1.83251	30.075	-6.05562
30.08	2.20001	30.08	-3.72984
30.085	1.82605	30.085	-4.64632
30.09	1.54174	30.09	-5.33846
30.095	1.32466	30.095	-5.86236
30.1	2.82341	30.1	-4.59466
30.105	1.66728	30.105	-4.67407
30.11	3.08503	30.11	-3.69627
30.115	2.49365	30.115	-4.61855
30.12	3.08622	30.12	-3.02413
30.125	2.49925	30.125	-4.10721
30.13	4.10758	30.13	-3.64579
30.135	2.65182	30.135	-3.94798
30.14	3.84491	30.14	-3.13721
30.145	3.08508	30.145	-4.1847
30.15	4.17686	30.15	-3.30961
30.155	4.61953	30.155	-2.25651
30.16	3.05331	30.16	-2.87861
30.165	4.16361	30.165	-2.30771
30.17	6.04706	30.17	0.421224
30.175	4.77748	30.175	-1.46172
30.18	5.48704	30.18	-1.21313
30.185	7.07	30.185	1.27414
30.19	5.5751	30.19	-0.790007
30.195	6.11574	30.195	-0.677246
30.2	5.90665	30.2	0.0427982
30.205	6.38406	30.205	-0.0304272
30.21	6.75308	30.21	-0.0753135
30.215	7.04083	30.215	-0.0989261
30.22	6.64216	30.22	0.518916
30.225	6.97745	30.225	0.369117
30.23	9.55833	30.23	4.6101
30.235	9.20843	30.235	3.49408
30.24	8.95713	30.24	2.66725
30.245	10.4452	30.245	3.72274
30.25	9.29602	30.25	3.49919
30.255	8.68166	30.255	3.10546
30.26	10.2794	30.26	4.10398
30.265	9.838	30.265	3.21231
30.27	9.51825	30.27	2.55389
30.275	11.2211	30.275	6.80061
30.28	10.5949	30.28	5.30728
30.285	14.3588	30.285	9.9678
30.29	11.9919	30.29	8.76973
30.295	11.2332	30.295	6.87657
30.3	11.9542	30.3	7.5196
30.305	10.8504	30.305	6.36666
30.31	10.416	30.31	5.1307
30.315	13.9371	30.315	10.3714
30.32	12.7825	30.32	8.21434
30.325	11.5412	30.325	6.99423
30.33	12.5483	30.33	10.8251
30.335	12.6739	30.335	11.0778
30.34	11.8927	30.34	8.86346
30.345	13.9931	30.345	14.5315
30.35	14.5841	30.35	13.2149
30.355	16.9545	30.355	20.3448
30.36	16.0871	30.36	18.484
30.365	16.8489	30.365	22.3898
30.37	14.3789	30.37	18.4784
30.375	14.1938	30.375	17.2317
30.38	13.2975	30.38	17.1064
30.385	11.7402	30.385	14.6193
30.39	10.5743	30.39	12.7755
30.395	11.098	30.395	16.6796
30.4	11.3789	30.4	16.4704
30.405	11.7188	30.405	19.5679
30.41	10.1966	30.41	17.0885
30.415	9.05205	30.415	15.2557
30.42	9.58691	30.42	19.1734
30.425	9.63276	30.425	19.2182
30.43	7.5969	30.43	14.7137
30.435	9.02633	30.435	18.3664
30.44	8.18096	30.44	16.4441
30.445	7.5443	30.445	15.0293
30.45	8.46024	30.45	19.2607
30.455	7.75218	30.455	17.2501
30.46	7.21859	30.46	15.7693
30.465	7.70738	30.465	17.1249
30.47	6.55885	30.47	16.3796
30.475	6.31825	30.475	15.2245
30.48	8.03598	30.48	22.477
30.485	7.42414	30.485	19.936
30.49	8.625	30.49	26.3878
30.495	7.86702	30.495	23.0049
30.5	5.39235	30.5	19.0682
30.505	7.20939	30.505	22.431
30.51	6.55712	30.51	20.3898
30.515	6.69409	30.515	18.258
30.52	7.18336	30.52	22.9594
30.525	7.16598	30.525	20.2915
30.53	8.07492	30.53	24.0557
30.535	6.81012	30.535	18.9165
30.54	6.26671	30.54	17.9842
30.545	8.80387	30.545	21.0274
30.55	7.78773	30.55	19.6509
30.555	6.76054	30.555	15.5786
30.56	7.14647	30.56	18.0262
30.565	6.69815	30.565	17.3238
30.57	7.4734	30.57	15.7113
30.575	7.84922	30.575	18.0642
30.58	7.25293	30.58	17.4312
30.585	9.75857	30.585	20.6911
30.59	10.3649	30.59	17.8316
30.595	8.16036	30.595	15.0415
30.6	9.59604	30.6	16.5185
30.605	9.66159	30.605	15.362
30.61	8.30033	30.61	12.6004
30.615	9.50669	30.615	14.9608
30.62	8.60181	30.62	11.9345
30.625	8.96724	30.625	11.9488
30.63	11.0716	30.63	13.4863
30.635	9.20967	30.635	11.4736
30.64	11.8298	30.64	12.6065
30.645	11.8847	30.645	12.091
30.65	9.89525	30.65	10.4309
30.655	10.7544	30.655	10.1629
30.66	11.765	30.66	9.62225
30.665	9.63046	30.665	8.80506
30.67	12.4361	30.67	10.4449
30.675	11.4498	30.675	8.15934
30.68	11.134	30.68	9.34981
30.685	11.839	30.685	9.32757
30.69	11.0687	30.69	7.30595
30.695	9.24942	30.695	7.02902
30.7	12.6785	30.7	8.68717
30.705	11.1526	30.705	7.42281
30.71	12.7515	30.71	7.05978
30.715	11.024	30.715	6.41039
30.72	10.2156	30.72	5.43399
30.725	12.9126	30.725	8.05778
30.73	11.848	30.73	6.50749
30.735	10.675	30.735	5.71727
30.74	11.6746	30.74	6.57394
30.745	11.8793	30.745	7.78851
30.75	10.5327	30.75	6.8959
30.755	10.0683	30.755	5.67889
30.76	11.1118	30.76	6.70313
30.765	9.62546	30.765	6.4366
30.77	11.1036	30.77	6.97271
30.775	10.2878	30.775	5.99555
30.78	9.29634	30.78	5.64035
30.785	10.2788	30.785	6.97687
30.79	9.089	30.79	6.60224
30.795	8.82735	30.795	5.68875
30.8	9.20137	30.8	7.76234
30.805	8.9445	30.805	6.55133
30.81	9.47052	30.81	8.25338
30.815	9.18722	30.815	6.90421
30.82	8.35669	30.82	6.50861
30.825	9.55283	30.825	7.72191
30.83	8.27688	30.83	7.50144
30.835	7.94556	30.835	6.70872
30.84	8.41069	30.84	8.72963
30.845	7.45117	30.845	8.25021
30.85	7.74413	30.85	6.87636
30.855	8.14721	30.855	8.99173
30.86	7.90711	30.86	7.81724
30.865	7.72942	30.865	6.93233
30.87	8.16139	30.87	9.03256
30.875	8.32992	30.875	7.4598
30.88	8.01422	30.88	10.0515
30.885	7.85833	30.885	8.61105
30.89	7.74383	30.89	7.52672
30.895	7.98469	30.895	9.71596
30.9	7.23888	30.9	8.98103
30.905	7.48113	30.905	10.9575
30.91	7.50232	30.91	9.29706
30.915	7.13371	30.915	8.43474
30.92	7.80441	30.92	10.1702
30.925	7.13961	30.925	9.3363
30.93	7.26673	30.93	8.08372
30.935	7.68885	30.935	10.1469
30.94	6.69208	30.94	9.70438
30.945	6.9521	30.945	8.36349
30.95	8.57645	30.95	9.25788
30.955	7.76223	30.955	8.65799
30.96	7.77732	30.96	7.58094
30.965	7.72849	30.965	10.1627
30.97	7.14734	30.97	9.34045
30.975	7.33725	30.975	8.09664
30.98	8.04502	30.98	9.9279
30.985	8.03356	30.985	8.54056
30.99	7.40198	30.99	8.12173
30.995	8.11692	30.995	9.94847
31	8.11085	31	8.55777
31.005	8.67166	31.005	10.2789
31.01	8.54999	31.01	8.80902
31.015	7.8358	31.015	8.32833
31.02	7.86332	31.02	10.7342
31.025	7.96498	31.025	9.15464
31.03	7.41829	31.03	8.59171
31.035	8.19693	31.035	10.3105
31.04	8.23867	31.04	8.83883
31.045	7.55693	31.045	8.44701
31.05	9.4378	31.05	9.09062
31.055	9.20012	31.055	7.91876
31.06	9.58729	31.06	9.80412
31.065	9.09691	31.065	8.69605
31.07	8.97312	31.07	7.61993
31.075	9.20717	31.075	9.81566
31.08	9.08191	31.08	8.46045
31.085	8.99057	31.085	7.44041
31.09	7.8221	31.09	7.7743
31.095	9.09435	31.095	9.20589
31.1	9.02352	31.1	8.00181
31.105	8.25741	31.105	7.81075
31.11	8.40965	31.11	6.93964
31.115	10.1918	31.115	7.94811
31.12	9.40314	31.12	7.52705
31.125	9.29704	31.125	6.72488
31.13	9.22009	31.13	6.11967
31.135	9.72784	31.135	8.43014
31.14	9.56648	31.14	7.40246
31.145	8.82261	31.145	7.25364
31.15	9.84041	31.15	8.8962
31.155	9.05425	31.155	8.37496
31.16	8.61348	31.16	7.83431
31.165	8.14287	31.165	7.56797
31.17	8.41583	31.17	6.74143
31.175	10.05	31.175	8.02193
31.18	9.2434	31.18	7.712
31.185	9.26434	31.185	6.85279
31.19	8.41868	31.19	7.0689
31.195	8.02628	31.195	6.9883
31.2	10.0233	31.2	7.96648
31.205	9.00882	31.205	7.90978
31.21	8.48983	31.21	7.62458
31.215	8.72651	31.215	6.78396
31.22	9.46953	31.22	8.91797
31.225	8.85919	31.225	8.38354
31.23	8.16336	31.23	8.22003
31.235	7.88336	31.235	7.85476
31.24	7.91235	31.24	7.34106
31.245	9.74549	31.245	8.47441
31.25	9.3266	31.25	7.81567
31.255	9.39697	31.255	6.93633
31.26	7.96295	31.26	7.76292
31.265	7.99111	31.265	7.27846
31.27	8.39677	31.27	6.52984
31.275	7.69127	31.275	6.9774
31.28	9.83535	31.28	7.96993
31.285	9.40827	31.285	7.44701
31.29	7.35754	31.29	8.78455
31.295	7.9334	31.295	7.6731
31.3	8.36798	31.3	6.83615
31.305	7.44565	31.305	7.45602
31.31	7.61617	31.31	7.05796
31.315	7.74167	31.315	6.76112
31.32	8.00929	31.32	9.69511
31.325	8.43163	31.325	8.37154
31.33	8.36413	31.33	7.76247
31.335	7.4471	31.335	8.17142
31.34	7.62162	31.34	7.61519
31.345	6.88611	31.345	8.06378
31.35	7.19676	31.35	7.53729
31.355	7.8143	31.355	6.75723
31.36	8.9331	31.36	8.84667
31.365	8.11673	31.365	8.76683
31.37	8.75082	31.37	7.45997
31.375	7.11124	31.375	8.59437
31.38	8.37955	31.38	6.94656
31.385	7.69778	31.385	7.3431
31.39	7.18186	31.39	7.64449
31.395	7.4158	31.395	7.24903
31.4	6.72486	31.4	7.81824
31.405	7.06893	31.405	7.38225
31.41	7.73904	31.41	9.9734
31.415	8.46037	31.415	8.39564
31.42	8.76266	31.42	7.45046
31.425	7.74113	31.425	7.98926
31.43	7.83727	31.43	7.53049
31.435	7.907	31.435	7.18822
31.44	7.71838	31.44	7.17187
31.445	7.81594	31.445	6.92001
31.45	7.88672	31.45	6.73293
31.455	6.06098	31.455	8.47088
31.46	6.5591	31.46	7.90634
31.465	7.97022	31.465	9.77563
31.47	7.76003	31.47	9.14381
31.475	7.60288	31.475	8.66892
31.48	7.72405	31.48	8.07318
31.485	6.94853	31.485	8.49225
31.49	7.2292	31.49	7.94371
31.495	7.43731	31.495	7.53416
31.5	7.97796	31.5	6.8419
31.505	7.99919	31.505	6.70642
31.51	8.01273	31.51	6.60667
31.515	8.43494	31.515	9.45006
31.52	8.73182	31.52	8.3001
31.525	9.19573	31.525	7.19589
31.53	8.29253	31.53	7.61836
31.535	8.62298	31.535	6.92688
31.54	8.48658	31.54	6.79201
31.545	7.51789	31.545	7.55675
31.55	8.04062	31.55	6.88057
31.555	8.46286	31.555	9.67354
31.56	8.75978	31.56	8.48578
31.565	8.59823	31.565	7.97874
31.57	7.22375	31.57	8.85133
31.575	7.43707	31.575	8.26114
31.58	7.35615	31.58	8.05894
31.585	7.92145	31.585	7.28085
31.59	7.96119	31.59	7.08107
31.595	7.98862	31.595	6.93315
31.6	8.39376	31.6	6.43717
31.605	8.31338	31.605	6.44898
31.61	9.29064	31.61	8.75063
31.615	9.38055	31.615	7.81769
31.62	9.68924	31.62	6.87632
31.625	8.66965	31.625	7.42098
31.63	8.91281	31.63	6.8212
31.635	8.08547	31.635	7.38066
31.64	8.71136	31.64	6.55344
31.645	7.92966	31.645	7.18373
31.65	8.35124	31.65	6.64818
31.655	8.28319	31.655	6.63032
31.66	7.60431	31.66	7.24436
31.665	8.34153	31.665	6.45809
31.67	9.30872	31.67	8.78449
31.675	10.0166	31.675	7.24467
31.68	8.289	31.68	8.34788
31.685	8.23752	31.685	7.93071
31.69	7.57107	31.69	8.24529
31.695	8.31763	31.695	7.23446
31.7	8.25191	31.7	7.10158
31.705	8.20027	31.705	7.0039
31.71	8.15918	31.71	6.93262
31.715	8.75148	31.715	6.25567
31.72	8.18313	31.72	6.76015
31.725	8.13637	31.725	6.75863
31.73	8.09893	31.73	6.75947
31.735	8.69397	31.735	6.1366
31.74	8.51462	31.74	6.29471
31.745	9.00322	31.745	5.7898
31.75	8.74403	31.75	6.03637
31.755	10.2127	31.755	7.88868
31.76	9.27397	31.76	8.01598
31.765	8.94945	31.765	7.73159
31.77	9.3292	31.77	6.89483
31.775	8.98839	31.775	6.89254
31.78	8.34349	31.78	7.27977
31.785	8.23932	31.785	7.19035
31.79	8.78433	31.79	6.49981
31.795	7.55503	31.795	7.61961
31.8	8.26132	31.8	6.83086
31.805	8.40394	31.805	6.62605
31.81	7.25473	31.81	7.72829
31.815	8.02107	31.815	6.92636
31.82	8.59569	31.82	6.32473
31.825	7.38859	31.825	7.51122
31.83	8.11153	31.83	6.77248
31.835	8.26664	31.835	6.60518
31.84	7.51372	31.84	7.34862
31.845	7.80849	31.845	7.0464
31.85	8.41127	31.85	6.43769
31.855	7.85078	31.855	6.99339
31.86	7.80992	31.86	7.03032
31.865	8.01544	31.865	6.82151
31.87	9.20427	31.87	8.96067
31.875	9.44999	31.875	7.90884
31.88	8.62173	31.88	8.13223
31.885	7.9931	31.885	8.30689
31.89	8.13969	31.89	7.81953
31.895	7.61893	31.895	8.08441
31.9	8.23336	31.9	7.27777
31.905	8.06856	31.905	7.2981
31.91	8.18115	31.91	7.07686
31.915	7.24794	31.915	7.92828
31.92	6.92247	31.92	8.1921
31.925	7.05789	31.925	8.01015
31.93	7.39563	31.93	7.6372
31.935	7.64372	31.935	7.36241
31.94	6.18665	31.94	8.79915
31.945	7.10398	31.945	7.86626
31.95	6.39246	31.95	8.56582
31.955	6.85873	31.955	8.09027
31.96	6.96468	31.96	7.97706
31.965	6.26789	31.965	8.6681
31.97	7.13215	31.97	7.79923
31.975	6.76778	31.975	8.15984
31.98	7.11254	31.98	7.81195
31.985	7.36588	31.985	7.55596
31.99	6.92518	31.99	7.99438
31.995	6.58721	31.995	8.33033
32	6.95178	32	7.96395
32.005	6.59449	32.005	8.31957
32.01	7.33152	32.01	7.58099
32.015	6.87171	32.015	8.03934
32.02	7.14489	32.02	7.76476
32.025	6.33211	32.025	8.57618
32.03	6.4839	32.03	8.42307
32.035	6.83392	32.035	8.07176
32.04	6.46571	32.04	8.4387
32.045	6.80759	32.045	8.09556
32.05	7.44572	32.05	7.45619
32.055	6.91173	32.055	7.98895
32.06	7.12927	32.06	7.77017
32.065	7.04866	32.065	7.84956
32.07	7.22437	32.07	7.67263
32.075	7.73786	32.075	7.15792
32.08	9.16274	32.08	9.06262
32.085	8.81669	32.085	8.6038
32.09	7.92646	32.09	8.89012
32.095	8.26378	32.095	8.0996
32.1	7.5042	32.1	8.51901
32.105	7.93952	32.105	7.8283
32.11	8.26587	32.11	7.31015
32.115	7.49806	32.115	7.93384
